timestamps,TP9,AF7,AF8,TP10,Right AUX,Estimulo
191342.364,41.992,21.484,38.086,45.898,46.875,0
191342.368,38.086,28.809,30.762,35.156,0.977,0
191342.372,30.762,38.574,13.672,33.691,4.395,0
191342.375,28.320,27.344,8.301,49.805,29.297,0
191342.379,36.621,20.508,28.320,42.969,72.754,0
191342.383,48.340,32.227,38.086,28.809,70.801,0
191342.387,41.992,37.598,39.551,41.504,25.879,0
191342.391,39.062,32.227,34.180,43.457,-17.578,0
191342.395,41.016,28.320,29.785,44.922,13.184,0
191342.399,32.715,32.715,30.273,32.715,20.508,0
191342.403,26.367,23.438,25.879,28.809,-27.344,0
191342.407,23.438,22.461,28.809,33.691,-22.461,0
191342.411,29.785,32.227,38.086,47.363,39.551,0
191342.414,33.691,39.551,39.062,47.852,35.645,0
191342.418,25.879,38.086,33.691,29.785,-11.230,0
191342.422,22.949,31.250,32.227,34.668,-15.625,0
191342.426,23.438,25.879,36.621,58.594,69.336,0
191342.430,23.438,32.715,36.621,45.898,99.609,0
191342.434,21.973,39.062,41.016,8.301,34.180,0
191342.438,22.461,28.809,37.109,10.742,0.977,0
191342.442,27.344,21.973,23.438,44.434,55.176,0
191342.446,26.855,12.695,26.367,40.039,94.727,0
191342.450,21.973,18.066,34.668,23.438,32.227,0
191342.454,25.391,27.344,38.574,26.855,-10.742,0
191342.457,25.879,24.414,45.410,35.645,48.828,0
191342.461,21.973,30.762,44.434,35.645,60.547,0
191342.465,20.020,38.574,37.109,18.555,-38.086,0
191342.469,20.020,42.969,33.691,24.414,-55.664,0
191342.473,15.625,40.039,33.691,31.738,-8.789,0
191342.477,9.277,25.879,26.855,45.898,19.531,0
191342.481,15.137,23.438,19.531,36.133,-25.391,0
191342.485,19.531,31.250,24.902,19.531,-87.402,0
191342.489,11.719,36.621,30.273,36.621,-53.711,0
191342.493,24.414,34.180,25.391,51.270,-23.438,0
191342.497,32.227,33.203,22.461,40.527,19.043,0
191342.500,23.438,37.109,29.785,22.949,35.156,0
191342.504,8.789,30.762,37.109,22.949,-8.789,0
191342.508,7.324,28.320,35.645,32.227,28.320,0
191342.512,29.785,34.668,34.668,46.387,63.477,0
191342.516,23.438,30.273,40.527,37.598,24.902,0
191342.520,-2.930,21.973,38.086,19.531,9.277,0
191342.524,6.348,20.996,37.109,32.715,-4.395,0
191342.528,22.461,21.973,37.109,50.293,33.691,0
191342.532,19.043,27.344,23.926,34.668,69.336,0
191342.536,10.254,36.133,25.391,26.367,41.016,0
191342.539,1.953,29.785,37.598,23.926,57.129,0
191342.543,-0.488,22.949,38.574,20.996,83.496,0
191342.547,3.906,26.855,38.574,23.438,56.641,0
191342.551,4.883,29.785,37.109,13.672,18.066,0
191342.555,5.859,22.461,35.645,17.090,15.625,0
191342.559,9.277,1.953,27.344,41.504,78.613,0
191342.563,14.160,13.184,14.160,43.945,119.141,0
191342.567,17.578,34.180,22.461,28.320,55.176,0
191342.571,9.766,36.133,39.551,25.879,-0.488,0
191342.575,13.184,34.180,44.922,37.109,38.086,0
191342.579,18.066,30.273,41.992,45.410,62.012,0
191342.582,17.090,25.879,33.203,31.250,30.762,0
191342.586,23.926,10.742,28.809,18.066,-40.039,0
191342.590,14.160,15.137,29.297,35.645,-34.180,0
191342.594,10.742,30.762,17.090,58.105,61.035,0
191342.598,26.855,24.414,8.301,53.711,29.297,0
191342.602,20.996,21.973,25.879,20.020,-24.902,0
191342.606,3.418,28.809,46.875,16.113,19.043,0
191342.610,8.301,29.785,47.852,37.598,55.664,0
191342.614,17.090,29.297,35.156,31.738,68.848,0
191342.618,15.625,28.809,25.879,11.719,23.438,0
191342.622,13.184,31.738,26.367,17.578,19.043,0
191342.625,26.367,31.250,37.598,44.434,61.523,0
191342.629,42.969,31.738,28.320,47.363,36.621,0
191342.633,36.133,32.227,8.789,35.156,-4.395,0
191342.637,27.832,30.762,13.672,27.344,14.648,0
191342.641,28.809,28.320,31.738,35.156,45.898,0
191342.645,22.461,23.438,41.504,53.223,54.199,0
191342.649,22.461,26.855,41.992,37.598,16.113,0
191342.653,26.367,37.598,34.668,21.484,0.488,0
191342.657,26.367,34.668,20.508,29.297,41.504,0
191342.661,36.621,27.832,14.160,43.457,60.059,0
191342.664,38.574,31.738,17.578,32.227,7.324,0
191342.668,26.367,30.273,32.715,20.020,-18.066,0
191342.672,12.207,32.227,45.410,23.438,-0.488,0
191342.676,16.113,30.273,47.363,38.574,9.277,0
191342.680,27.832,24.902,41.992,41.016,18.066,0
191342.684,23.926,30.273,33.691,28.320,-2.441,0
191342.688,21.973,36.621,29.785,34.180,-15.625,0
191342.692,20.020,30.762,22.949,51.758,39.062,0
191342.696,35.645,34.180,23.926,69.824,103.027,1
191342.700,49.805,40.527,34.668,55.664,57.129,0
191342.704,28.809,27.832,29.785,26.855,9.766,0
191342.707,24.902,24.414,25.879,28.809,55.176,0
191342.711,31.250,29.297,31.738,34.668,90.332,0
191342.715,23.438,32.227,32.227,20.508,72.266,0
191342.719,25.391,34.180,33.203,14.648,19.043,0
191342.723,13.672,37.109,29.297,26.367,-2.930,0
191342.727,9.766,31.250,32.715,45.898,60.547,0
191342.731,21.973,26.367,38.574,44.434,33.691,0
191342.735,17.090,29.297,32.715,33.203,-59.570,0
191342.739,13.184,32.227,27.832,31.738,-37.598,0
191342.743,23.926,29.785,30.273,45.898,17.090,0
191342.747,27.344,25.391,30.273,47.852,19.531,0
191342.750,28.320,23.438,24.902,29.785,16.113,0
191342.754,24.902,25.391,33.203,21.484,9.766,0
191342.758,22.949,22.949,38.086,27.344,59.082,0
191342.762,27.344,26.855,23.926,40.039,90.332,0
191342.766,28.320,37.109,19.531,30.762,27.832,0
191342.770,27.832,30.762,30.762,31.250,-6.348,0
191342.774,21.484,20.020,36.621,45.898,38.574,0
191342.778,24.902,14.160,35.645,48.828,71.289,0
191342.782,20.996,27.344,29.785,33.691,80.566,0
191342.786,18.555,36.133,26.855,18.555,67.871,0
191342.789,20.020,30.762,31.250,22.461,66.895,0
191342.793,22.461,32.227,28.320,37.109,69.336,0
191342.797,24.902,34.668,27.344,36.133,32.715,0
191342.801,20.508,32.227,30.273,24.414,10.254,0
191342.805,27.832,31.738,27.832,25.879,14.160,0
191342.809,28.809,26.367,33.203,42.480,56.152,0
191342.813,20.020,25.391,33.203,29.785,58.105,0
191342.817,21.973,30.762,26.367,26.855,18.066,0
191342.821,18.066,25.879,29.297,34.668,-26.855,0
191342.825,19.043,24.902,38.086,33.691,13.184,0
191342.829,25.391,21.973,36.621,40.527,67.871,0
191342.832,25.391,21.973,25.879,32.715,66.406,0
191342.836,25.391,28.809,25.879,24.414,68.848,0
191342.840,14.648,34.668,34.180,40.527,75.195,0
191342.844,7.324,27.832,28.320,43.945,77.148,0
191342.848,15.137,25.879,20.996,24.902,60.547,0
191342.852,19.043,28.320,32.715,25.391,22.461,0
191342.856,12.695,22.461,45.410,23.926,7.812,0
191342.860,17.090,18.555,49.316,36.621,72.266,0
191342.864,20.020,15.625,40.527,38.574,115.234,0
191342.868,24.902,20.508,37.598,15.137,66.895,0
191342.872,29.785,32.715,39.062,13.184,35.156,0
191342.875,33.203,39.551,33.203,38.574,57.129,0
191342.879,30.762,39.062,31.250,41.016,52.734,0
191342.883,27.832,37.598,22.461,24.902,-11.719,0
191342.887,26.855,35.645,13.184,34.668,-31.738,0
191342.891,14.648,30.273,22.949,44.922,26.855,0
191342.895,20.996,30.762,41.016,46.387,62.988,0
191342.899,31.250,36.621,49.316,34.668,47.363,0
191342.903,23.438,21.973,43.945,15.137,23.926,0
191342.907,21.973,15.625,42.480,23.438,35.156,0
191342.911,25.391,33.691,38.574,43.457,60.547,0
191342.914,31.738,45.898,33.691,39.062,39.551,0
191342.918,34.180,46.875,35.645,21.973,-30.273,0
191342.922,24.902,40.527,41.504,32.227,-8.789,0
191342.926,21.973,29.297,33.691,50.293,96.191,0
191342.930,21.484,28.809,14.160,40.527,74.219,0
191342.934,20.996,39.062,10.254,25.879,3.418,0
191342.938,23.438,45.898,27.344,30.762,-5.859,0
191342.942,19.043,35.156,43.457,38.574,26.367,0
191342.946,19.043,27.344,41.992,39.062,54.688,0
191342.950,20.020,30.762,41.016,15.625,0.977,0
191342.954,11.230,35.645,43.457,12.695,-13.672,0
191342.957,14.648,33.691,43.945,36.621,18.555,0
191342.961,24.414,29.297,48.340,41.504,32.227,0
191342.965,23.438,38.086,38.086,20.996,42.480,0
191342.969,24.902,39.062,24.902,22.949,9.766,0
191342.973,16.113,26.855,20.020,26.367,-3.418,0
191342.977,15.137,28.320,19.043,29.297,43.945,0
191342.981,28.809,32.227,19.043,37.109,16.602,0
191342.985,32.715,21.973,21.484,23.438,-42.480,0
191342.989,26.367,24.902,27.344,17.090,-24.902,0
191342.993,27.832,33.691,33.691,27.344,30.273,0
191342.997,25.391,30.762,47.363,38.086,52.246,0
191343.000,25.391,33.203,45.410,28.320,-10.254,0
191343.004,27.832,37.109,34.668,22.461,-40.039,0
191343.008,15.625,36.133,33.203,30.762,-13.672,0
191343.012,13.672,30.273,29.785,31.738,22.949,0
191343.016,20.020,30.762,19.531,16.113,20.020,0
191343.020,14.160,30.762,22.949,23.926,-36.133,0
191343.024,9.277,27.832,29.785,42.969,-36.133,0
191343.028,16.602,26.855,31.738,38.086,19.043,0
191343.032,26.367,28.320,27.344,25.391,19.043,0
191343.036,33.203,28.320,27.832,34.668,19.043,0
191343.039,23.926,23.438,34.668,36.621,44.434,0
191343.043,14.160,23.438,28.320,47.363,75.684,0
191343.047,24.414,34.180,25.391,40.527,75.684,0
191343.051,20.020,35.156,30.762,17.578,22.461,0
191343.055,4.883,25.391,27.344,15.625,36.133,0
191343.059,15.137,25.391,20.020,45.410,62.012,0
191343.063,28.320,28.320,23.438,35.645,66.406,0
191343.067,22.461,24.902,36.133,9.277,50.781,0
191343.071,18.066,20.508,39.551,30.273,32.227,0
191343.075,18.555,28.320,40.527,46.387,49.805,0
191343.079,21.484,28.809,39.062,44.922,75.195,0
191343.082,26.855,29.785,34.668,28.320,55.176,0
191343.086,26.855,37.109,38.574,17.090,3.418,0
191343.090,12.695,29.297,38.086,27.344,28.809,0
191343.094,21.973,19.043,34.180,42.969,61.035,0
191343.098,35.156,19.531,34.668,34.668,39.062,0
191343.102,22.949,20.996,31.738,33.203,25.391,0
191343.106,16.602,24.902,34.668,30.762,-10.254,0
191343.110,16.602,27.832,32.227,41.992,34.180,0
191343.114,19.043,33.203,18.066,32.715,71.289,0
191343.118,19.043,37.598,17.578,20.020,4.395,0
191343.122,15.625,27.832,21.973,19.531,-25.879,0
191343.125,14.160,28.809,23.438,19.043,10.742,0
191343.129,20.508,29.297,34.668,21.973,1.465,0
191343.133,20.996,29.785,47.363,22.949,-44.922,0
191343.137,16.602,28.809,52.734,11.719,-47.852,0
191343.141,19.531,17.090,48.340,16.602,-29.297,0
191343.145,15.625,15.625,41.992,34.668,50.293,0
191343.149,9.277,30.762,26.367,28.809,55.664,0
191343.153,15.625,34.180,15.625,34.668,-23.438,0
191343.157,21.484,28.809,30.762,29.297,-24.414,0
191343.161,25.391,28.809,39.551,31.250,20.020,0
191343.164,26.367,30.273,38.086,30.762,-18.066,0
191343.168,23.438,31.738,32.715,16.602,-74.219,0
191343.172,12.207,28.320,31.250,23.926,-44.434,0
191343.176,22.461,17.090,33.203,38.086,12.207,0
191343.180,41.016,18.066,38.086,45.410,35.645,0
191343.184,37.109,30.273,39.551,29.785,-9.277,0
191343.188,22.461,38.574,29.297,8.301,-60.547,0
191343.192,22.949,40.527,28.320,33.203,1.953,0
191343.196,31.250,38.574,33.691,47.852,38.574,0
191343.200,29.785,40.527,26.367,21.484,-33.691,0
191343.204,32.715,33.203,23.438,21.484,-74.707,0
191343.207,25.391,27.344,34.180,34.668,-4.883,0
191343.211,18.555,29.785,37.109,22.461,66.895,0
191343.215,20.020,29.785,34.180,10.742,21.484,0
191343.219,19.043,29.785,38.086,16.113,-43.457,0
191343.223,14.648,31.250,40.527,26.855,-6.348,0
191343.227,12.207,24.902,27.832,37.109,54.199,0
191343.231,6.836,29.785,26.367,19.043,13.672,0
191343.235,4.883,37.109,37.109,0.977,-44.922,0
191343.239,5.859,28.320,36.133,16.113,-2.930,0
191343.243,13.672,21.484,31.250,29.785,43.457,0
191343.247,28.320,22.949,31.250,34.180,46.387,0
191343.250,32.227,29.297,33.691,25.879,49.316,0
191343.254,17.578,26.367,38.574,11.719,38.086,0
191343.258,14.160,24.414,34.668,27.832,42.480,0
191343.262,24.414,28.809,22.949,52.246,52.734,0
191343.266,17.578,30.762,23.926,36.133,29.785,0
191343.270,10.742,30.762,38.086,15.137,21.484,0
191343.274,14.160,21.973,40.527,23.926,27.832,0
191343.278,23.438,22.461,29.785,40.039,33.203,0
191343.282,24.414,36.133,23.926,33.203,10.742,0
191343.286,20.020,40.527,24.902,20.508,-25.879,0
191343.289,21.484,35.156,31.738,23.438,-1.953,0
191343.293,32.227,28.320,31.738,35.645,65.918,0
191343.297,36.621,28.809,22.949,19.531,61.035,0
191343.301,29.785,29.785,29.297,6.348,-15.137,0
191343.305,24.414,26.855,42.480,21.484,-0.488,0
191343.309,33.691,29.785,42.969,42.480,96.680,0
191343.313,33.203,30.762,26.855,49.805,111.816,0
191343.317,28.809,17.090,25.391,33.691,32.227,0
191343.321,31.250,21.973,31.738,27.344,-2.930,0
191343.325,26.367,36.133,20.020,36.621,7.324,0
191343.329,19.531,33.691,17.578,37.598,46.875,0
191343.332,13.184,37.109,35.156,16.602,61.035,0
191343.336,17.090,39.062,40.527,5.371,-3.906,0
191343.340,15.137,28.809,29.785,20.020,5.371,0
191343.344,20.020,22.949,33.203,37.598,89.844,0
191343.348,36.621,39.551,34.668,31.250,117.188,0
191343.352,30.762,43.457,24.902,23.438,41.504,0
191343.356,15.137,27.344,24.902,20.508,0.977,0
191343.360,25.879,24.414,39.062,31.250,66.406,0
191343.364,35.156,25.391,41.016,42.969,85.938,0
191343.368,27.344,33.691,28.809,28.809,29.297,0
191343.372,30.762,39.062,26.855,21.484,-14.160,0
191343.375,43.457,37.109,28.320,41.016,32.715,0
191343.379,43.945,36.133,28.320,38.086,11.719,1
191343.383,31.250,34.180,29.785,17.578,-52.246,0
191343.387,18.066,33.691,32.715,29.297,-4.395,0
191343.391,18.555,30.273,31.738,39.551,24.902,0
191343.395,33.691,29.297,27.832,45.410,65.430,0
191343.399,35.156,36.133,24.414,36.621,51.758,0
191343.403,25.391,26.855,35.645,28.320,36.621,0
191343.407,26.855,28.809,43.945,27.832,53.223,0
191343.411,26.367,35.645,26.367,29.297,55.176,0
191343.414,18.555,27.832,20.020,26.855,41.504,0
191343.418,16.113,16.602,20.996,13.184,13.672,0
191343.422,18.555,17.090,18.555,29.297,44.434,0
191343.426,26.367,27.344,24.902,39.551,72.266,0
191343.430,36.133,31.738,31.738,25.391,52.246,0
191343.434,29.785,35.645,37.109,22.949,51.270,0
191343.438,18.555,31.250,40.527,26.855,8.789,0
191343.442,19.043,22.949,43.945,43.945,35.645,0
191343.446,20.020,31.250,32.715,44.434,122.559,0
191343.450,21.484,40.039,23.926,20.996,48.340,0
191343.454,21.973,34.180,30.762,22.949,-29.785,0
191343.457,20.508,27.344,28.320,38.574,6.836,0
191343.461,30.762,31.738,22.949,45.898,36.133,0
191343.465,37.598,36.621,27.344,26.855,66.895,0
191343.469,23.926,29.785,28.809,12.695,38.574,0
191343.473,14.648,25.391,27.832,25.391,16.113,0
191343.477,20.020,21.484,38.086,32.227,91.309,0
191343.481,20.508,20.996,43.945,20.996,86.426,0
191343.485,22.949,27.832,41.992,20.020,16.113,0
191343.489,24.902,21.973,36.621,35.645,13.184,0
191343.493,32.227,13.672,24.414,48.340,51.758,0
191343.497,32.715,20.508,17.090,47.852,55.176,0
191343.500,25.879,30.273,18.066,44.922,-22.949,0
191343.504,22.949,34.668,21.484,29.785,-57.617,0
191343.508,21.973,36.621,29.785,16.113,7.812,0
191343.512,22.461,35.156,35.156,26.855,32.227,0
191343.516,15.625,36.133,38.574,12.207,-21.973,0
191343.520,8.789,41.016,38.574,0.977,-14.648,0
191343.524,11.719,41.016,37.109,22.949,51.270,0
191343.528,26.855,36.133,28.809,36.621,57.129,0
191343.532,27.832,36.133,25.391,27.344,57.129,0
191343.536,21.484,39.062,16.602,10.742,42.969,0
191343.539,21.973,34.180,14.160,21.973,38.574,0
191343.543,28.320,28.809,16.602,35.645,43.457,0
191343.547,28.320,29.297,17.578,19.531,32.715,0
191343.551,26.367,29.297,28.809,23.438,63.965,0
191343.555,28.809,28.809,34.180,31.250,47.363,0
191343.559,32.227,29.785,36.621,31.250,49.316,0
191343.563,31.250,27.344,35.645,33.203,86.426,0
191343.567,31.738,23.926,29.297,35.645,47.852,0
191343.571,31.738,23.926,25.879,29.785,24.414,0
191343.575,28.320,17.578,34.668,32.227,48.340,0
191343.579,31.250,24.414,39.062,34.668,86.914,0
191343.582,30.273,35.156,37.598,27.832,81.055,0
191343.586,32.227,34.668,39.062,27.344,17.090,0
191343.590,23.926,27.832,41.504,25.879,12.207,0
191343.594,16.602,25.391,39.062,31.738,44.434,0
191343.598,24.414,27.832,32.715,27.344,47.852,0
191343.602,23.438,25.879,22.949,9.277,59.570,0
191343.606,10.254,24.902,23.438,9.277,44.922,0
191343.610,22.461,29.785,23.438,41.016,89.355,0
191343.614,29.297,28.809,20.996,48.828,136.719,0
191343.618,25.879,30.762,34.180,32.227,69.336,0
191343.622,25.879,31.738,54.688,27.344,35.645,0
191343.625,17.090,20.020,54.199,34.180,64.941,0
191343.629,31.738,19.043,28.809,33.691,90.820,0
191343.633,34.668,23.926,22.949,32.227,46.387,0
191343.637,20.508,30.762,35.645,22.949,18.555,0
191343.641,20.020,38.086,35.645,33.203,31.250,0
191343.645,34.668,41.992,31.738,55.176,83.008,0
191343.649,42.969,41.016,26.367,38.574,72.266,0
191343.653,35.645,34.180,29.297,19.531,20.996,0
191343.657,19.531,35.156,36.621,21.973,69.824,0
191343.661,15.625,28.320,43.945,33.203,127.441,0
191343.664,27.832,23.926,52.246,31.738,87.891,0
191343.668,24.902,33.203,50.293,20.508,25.879,0
191343.672,25.879,32.227,34.668,19.531,52.246,0
191343.676,35.645,18.555,22.949,44.922,96.680,0
191343.680,37.109,15.625,20.996,53.711,72.266,0
191343.684,36.621,22.949,21.484,34.668,25.391,0
191343.688,35.156,31.250,29.297,20.996,58.594,0
191343.692,31.250,31.738,42.969,27.344,77.148,0
191343.696,29.785,29.785,50.293,40.039,51.758,0
191343.700,31.250,38.086,46.387,26.367,33.203,0
191343.704,36.133,40.527,39.551,22.461,-1.465,0
191343.707,26.855,28.320,29.785,36.133,2.930,0
191343.711,28.809,20.508,20.020,44.434,64.941,0
191343.715,33.691,24.902,24.902,28.320,53.711,0
191343.719,28.809,35.645,32.227,29.297,9.277,0
191343.723,28.320,39.062,27.344,47.852,13.184,0
191343.727,24.902,29.785,32.715,56.641,20.020,0
191343.731,28.320,26.367,41.504,42.480,-13.672,0
191343.735,24.902,32.227,40.039,19.043,-43.457,0
191343.739,23.438,29.785,39.551,26.855,-39.551,0
191343.743,27.832,28.320,31.738,44.922,-6.348,0
191343.747,22.461,33.203,23.438,34.180,29.785,0
191343.750,26.855,36.621,19.043,20.996,21.973,0
191343.754,25.391,33.691,20.508,12.207,-26.367,0
191343.758,25.879,27.832,29.785,19.043,-9.766,0
191343.762,28.320,26.855,34.668,39.062,57.129,0
191343.766,28.809,29.297,25.391,22.461,16.602,0
191343.770,28.320,30.762,24.902,18.066,-37.109,0
191343.774,23.926,28.320,35.645,15.137,-7.324,0
191343.778,18.066,28.320,37.598,22.949,44.922,0
191343.782,20.508,30.762,37.598,28.809,-0.488,0
191343.786,19.531,27.344,36.133,10.742,-48.828,0
191343.789,14.160,21.973,31.250,11.719,7.324,0
191343.793,8.789,24.902,32.227,38.086,55.664,0
191343.797,6.836,34.180,24.414,33.691,55.176,0
191343.801,23.438,30.273,20.508,24.414,22.461,0
191343.805,23.438,20.020,27.344,33.203,0.977,0
191343.809,32.227,27.344,29.297,34.668,44.434,0
191343.813,27.832,39.062,33.203,31.738,52.734,0
191343.817,12.695,47.363,31.738,12.695,0.000,0
191343.821,12.695,43.945,27.832,8.789,-9.766,0
191343.825,16.113,30.762,31.738,24.414,3.906,0
191343.829,24.414,25.879,36.621,30.762,14.648,0
191343.832,24.902,33.691,21.973,22.949,6.348,0
191343.836,21.484,37.109,14.160,12.207,-1.953,0
191343.840,23.438,33.691,34.180,20.996,12.207,0
191343.844,24.414,32.227,40.527,36.133,-11.230,0
191343.848,25.391,36.621,35.156,24.902,-96.191,0
191343.852,27.832,37.598,35.645,12.695,-87.891,0
191343.856,24.902,37.598,36.133,14.160,-41.504,0
191343.860,29.785,34.668,33.691,35.156,-0.488,0
191343.864,31.738,31.738,28.320,33.691,39.551,0
191343.868,31.738,30.273,20.508,15.625,18.066,0
191343.872,30.273,30.762,15.625,23.926,8.301,0
191343.875,22.461,27.832,14.648,38.086,49.805,0
191343.879,23.438,24.414,24.414,30.762,58.105,0
191343.883,23.438,26.367,37.109,21.973,35.645,0
191343.887,21.973,23.926,42.480,27.344,40.527,0
191343.891,20.508,22.461,41.504,28.809,34.180,0
191343.895,34.668,27.344,39.551,36.621,56.641,0
191343.899,42.969,26.855,39.551,34.668,49.805,0
191343.903,29.297,26.855,34.180,19.531,-23.438,0
191343.907,22.949,24.414,28.320,26.367,-19.043,0
191343.911,29.785,20.020,30.273,37.598,38.574,0
191343.914,35.156,27.832,33.691,36.133,14.648,0
191343.918,39.551,29.785,30.273,43.457,-37.598,0
191343.922,30.273,28.320,29.785,45.898,-53.711,0
191343.926,14.160,22.461,35.156,30.762,-17.090,0
191343.930,2.930,20.020,35.645,19.531,-5.859,0
191343.934,7.324,22.949,34.668,19.043,-78.125,0
191343.938,13.184,25.879,34.668,13.672,-87.402,0
191343.942,16.113,26.855,31.250,28.809,-39.551,0
191343.946,25.391,25.391,34.668,33.203,13.184,0
191343.950,17.090,23.926,36.621,14.648,-7.324,0
191343.954,12.695,11.230,30.762,11.719,-22.461,0
191343.957,21.973,6.348,28.320,27.832,55.664,0
191343.961,20.508,13.184,32.715,36.621,112.793,0
191343.965,13.184,22.949,36.133,21.484,73.242,0
191343.969,9.277,34.180,38.574,17.090,0.977,0
191343.973,12.207,38.574,36.621,25.879,-8.301,0
191343.977,27.832,33.203,29.785,45.410,37.109,0
191343.981,37.109,22.949,29.785,35.156,22.461,0
191343.985,40.527,19.043,32.227,21.484,-16.602,0
191343.989,24.902,20.508,20.020,46.387,37.109,0
191343.993,14.648,24.902,21.973,49.805,70.801,2
191343.997,22.461,40.527,31.738,28.809,54.199,0
191344.000,12.207,42.969,31.738,19.531,18.555,0
191344.004,10.254,39.062,33.203,20.508,-19.043,0
191344.008,21.973,35.645,31.738,41.016,16.113,0
191344.012,28.320,24.902,28.320,38.574,91.797,0
191344.016,28.809,21.973,30.273,21.484,64.453,0
191344.020,25.391,33.203,31.738,28.320,39.062,0
191344.024,22.949,36.133,34.180,33.203,52.246,0
191344.028,25.879,26.855,31.250,40.527,52.246,0
191344.032,28.320,34.668,24.902,36.133,57.129,0
191344.036,26.367,40.039,34.668,27.832,25.879,0
191344.039,19.531,29.785,46.387,35.156,29.297,0
191344.043,18.066,31.250,46.387,40.527,40.527,0
191344.047,17.090,34.180,34.180,26.855,26.855,0
191344.051,20.020,28.809,20.508,15.625,16.113,0
191344.055,21.484,34.180,20.020,15.137,-7.812,0
191344.059,20.020,35.156,27.344,28.809,9.277,0
191344.063,20.020,27.344,34.180,40.527,60.059,0
191344.067,18.066,20.020,41.016,28.809,52.734,0
191344.071,18.066,17.578,42.480,22.949,31.738,0
191344.075,22.949,17.090,31.250,32.715,30.762,0
191344.079,24.902,21.973,33.203,37.109,58.594,0
191344.082,30.762,28.320,43.457,22.461,-11.719,0
191344.086,33.203,25.879,32.715,21.973,-67.871,0
191344.090,25.391,29.785,26.367,25.879,-14.160,0
191344.094,19.531,35.156,27.344,34.180,37.109,0
191344.098,14.648,44.434,27.832,25.879,57.129,0
191344.102,14.160,39.062,30.762,14.160,28.809,0
191344.106,20.508,18.066,18.066,25.879,44.922,0
191344.110,36.133,23.926,14.160,41.992,96.191,0
191344.114,32.227,29.297,32.227,33.203,70.801,0
191344.118,15.625,41.992,37.598,9.277,4.395,0
191344.122,14.648,50.781,34.668,5.859,7.324,0
191344.125,26.855,34.180,33.691,19.531,38.574,0
191344.129,19.043,27.344,30.273,23.926,17.090,0
191344.133,17.090,40.527,21.484,4.395,14.160,0
191344.137,22.461,46.875,15.137,3.418,47.852,0
191344.141,13.184,39.551,26.367,20.020,38.574,0
191344.145,21.484,35.156,34.180,32.715,32.715,0
191344.149,32.227,37.598,26.367,23.926,39.551,0
191344.153,23.438,41.504,23.926,22.949,35.645,0
191344.157,14.648,34.180,25.391,33.691,60.547,0
191344.161,19.043,29.297,24.414,40.527,67.383,0
191344.164,31.250,37.109,35.156,29.785,53.711,0
191344.168,23.926,33.203,40.527,9.766,25.879,0
191344.172,20.508,28.809,36.621,11.719,-29.785,0
191344.176,33.203,34.668,39.551,25.879,26.855,0
191344.180,31.738,45.898,41.992,26.367,103.516,0
191344.184,28.809,44.434,41.016,19.043,59.082,0
191344.188,30.762,36.621,30.273,22.461,35.156,0
191344.192,22.949,32.227,24.902,42.480,104.492,0
191344.196,36.133,25.391,27.344,47.363,119.629,0
191344.200,33.203,30.762,27.344,26.855,57.129,0
191344.204,16.602,37.109,34.668,15.625,6.348,0
191344.207,16.602,42.969,39.062,29.785,43.945,0
191344.211,24.414,34.668,40.527,44.922,114.258,0
191344.215,25.879,31.738,43.457,27.344,73.730,0
191344.219,19.043,39.062,45.410,22.461,-6.836,0
191344.223,19.531,38.574,33.691,26.855,-0.488,0
191344.227,27.344,37.598,12.207,28.320,86.914,0
191344.231,25.879,40.039,17.090,33.691,70.801,0
191344.235,20.996,38.574,29.785,13.184,-8.301,0
191344.239,11.230,32.227,34.668,7.812,21.973,0
191344.243,15.625,23.926,39.551,29.785,84.961,0
191344.247,24.414,25.391,36.621,32.715,80.078,0
191344.250,23.438,30.762,31.738,21.484,0.977,0
191344.254,22.461,26.855,32.227,19.043,-11.719,0
191344.258,21.484,22.949,33.691,29.297,65.918,0
191344.262,22.949,36.133,25.879,38.574,73.730,0
191344.266,29.785,36.133,17.090,18.066,2.930,0
191344.270,24.902,26.367,19.043,8.789,-20.996,0
191344.274,11.719,23.438,30.762,27.832,52.734,0
191344.278,17.090,21.973,40.039,44.922,50.293,0
191344.282,23.438,30.273,33.691,35.645,-21.973,0
191344.286,20.020,29.297,29.297,15.137,-22.461,0
191344.289,13.672,25.879,36.621,20.508,-13.184,0
191344.293,20.996,28.809,40.527,39.062,17.578,0
191344.297,31.738,32.227,39.551,38.574,7.812,0
191344.301,32.715,34.180,35.645,27.832,-24.414,0
191344.305,32.227,27.832,26.855,26.855,-52.246,0
191344.309,26.855,27.344,24.902,33.203,-39.551,0
191344.313,22.461,31.738,31.738,34.668,13.184,0
191344.317,17.578,34.180,40.039,26.367,-14.160,0
191344.321,10.254,31.250,41.504,24.414,-39.551,0
191344.325,11.230,23.438,36.621,41.992,5.859,0
191344.329,23.438,20.020,34.180,49.805,49.805,0
191344.332,30.762,28.320,31.738,30.762,39.551,0
191344.336,18.555,34.668,33.691,27.832,16.602,0
191344.340,11.719,33.203,26.367,28.809,-6.348,0
191344.344,18.555,26.367,12.207,31.738,39.062,0
191344.348,17.090,27.832,23.926,29.785,49.316,0
191344.352,15.625,35.156,41.504,24.902,-15.625,0
191344.356,9.766,17.578,41.992,24.414,-42.969,0
191344.360,11.719,16.602,38.574,25.391,-18.066,0
191344.364,20.996,37.109,38.086,33.691,36.621,0
191344.368,21.973,32.227,33.691,28.809,-20.020,0
191344.372,26.855,24.414,27.344,26.855,-73.242,0
191344.375,18.555,23.926,25.879,21.484,-3.418,0
191344.379,6.348,22.461,29.785,13.672,20.508,0
191344.383,12.207,23.438,33.691,15.625,-16.602,0
191344.387,14.160,20.508,30.273,13.672,-23.926,0
191344.391,2.930,21.484,28.809,10.742,-1.953,0
191344.395,12.695,25.879,22.949,14.648,47.363,0
191344.399,20.996,33.691,19.043,14.160,20.508,0
191344.403,13.184,31.738,27.832,10.742,-43.945,0
191344.407,11.230,26.855,33.691,20.996,-20.508,0
191344.411,16.602,24.902,22.949,31.738,34.668,0
191344.414,21.484,22.949,19.043,21.484,24.414,0
191344.418,25.879,24.414,31.738,15.625,-16.113,0
191344.422,19.531,21.484,33.203,21.484,3.418,0
191344.426,13.672,18.555,30.273,32.227,46.875,0
191344.430,13.672,19.043,33.203,20.996,54.199,0
191344.434,12.695,24.414,34.668,10.254,1.465,0
191344.438,11.719,29.785,34.180,30.273,-22.949,0
191344.442,13.672,25.391,28.320,31.250,0.977,0
191344.446,16.602,27.344,13.672,27.344,8.789,0
191344.450,24.414,23.926,13.672,28.320,10.742,0
191344.454,24.414,22.461,37.109,30.762,12.207,0
191344.457,23.438,26.367,45.898,37.598,52.734,0
191344.461,33.203,31.738,42.969,37.598,76.172,0
191344.465,31.738,41.992,37.598,22.949,53.711,0
191344.469,23.926,35.156,31.738,15.625,37.109,0
191344.473,21.973,29.785,34.180,31.250,40.039,0
191344.477,12.695,25.391,34.180,34.180,96.191,0
191344.481,13.672,26.367,30.762,18.555,98.633,0
191344.485,33.203,37.109,21.973,22.949,45.410,0
191344.489,30.273,34.668,11.719,24.414,20.508,0
191344.493,34.180,29.297,20.508,30.762,30.762,0
191344.497,40.527,31.738,31.250,35.156,65.918,0
191344.500,26.855,28.320,27.344,22.949,68.359,0
191344.504,17.090,17.090,32.227,13.184,20.020,0
191344.508,14.648,24.414,43.457,10.742,-5.371,0
191344.512,17.090,32.227,41.016,20.996,70.312,0
191344.516,26.367,14.160,35.156,31.738,57.129,0
191344.520,20.996,17.578,33.203,21.973,2.441,0
191344.524,16.602,36.621,31.738,36.133,25.391,0
191344.528,30.273,46.875,30.273,50.781,51.758,0
191344.532,31.738,40.039,25.879,30.762,75.195,0
191344.536,9.277,25.879,20.508,19.531,62.012,0
191344.539,-2.930,28.320,27.344,12.695,41.992,0
191344.543,13.184,27.344,41.992,25.879,91.309,0
191344.547,21.484,25.879,47.852,27.344,95.703,0
191344.551,18.555,30.273,45.898,4.395,4.883,0
191344.555,12.695,30.762,42.480,14.648,29.785,0
191344.559,20.508,28.809,34.180,39.062,94.238,0
191344.563,40.039,31.738,26.855,33.203,42.969,0
191344.567,32.227,30.762,27.344,20.996,7.812,0
191344.571,18.555,17.578,27.832,25.879,-33.691,0
191344.575,17.578,10.742,33.691,42.969,-4.395,0
191344.579,20.996,26.367,36.621,36.621,69.824,0
191344.582,23.438,41.992,27.832,16.113,28.809,0
191344.586,23.438,31.250,33.203,24.414,-13.672,0
191344.590,23.438,29.297,36.133,34.180,16.602,0
191344.594,24.902,35.156,23.438,38.086,58.594,0
191344.598,18.066,34.180,18.555,19.531,41.504,0
191344.602,13.184,35.156,32.227,11.230,41.992,0
191344.606,20.996,31.738,43.457,22.949,9.766,0
191344.610,26.855,25.391,38.086,25.391,37.598,0
191344.614,16.602,26.367,38.574,24.902,62.012,0
191344.618,15.625,30.762,34.180,20.020,10.742,0
191344.622,23.438,29.785,22.949,19.043,-28.809,0
191344.625,19.531,24.414,20.508,31.738,30.762,0
191344.629,20.020,21.484,22.461,33.203,75.684,0
191344.633,18.066,28.320,28.320,17.090,26.855,0
191344.637,11.230,29.297,29.785,7.812,10.254,0
191344.641,19.043,23.926,24.414,19.531,4.883,0
191344.645,25.879,29.785,29.297,38.574,38.086,0
191344.649,27.344,32.227,35.645,28.320,19.531,0
191344.653,20.020,26.855,32.227,18.066,-10.742,0
191344.657,11.719,31.250,30.273,17.578,40.527,0
191344.661,14.648,30.273,35.156,27.832,85.449,0
191344.664,20.996,31.738,28.809,38.086,65.918,0
191344.668,24.902,37.598,20.508,28.809,7.324,0
191344.672,20.020,34.668,26.855,16.602,-5.371,0
191344.676,24.902,32.227,26.855,30.273,40.527,0
191344.680,35.156,33.203,24.414,33.691,8.789,0
191344.684,35.645,34.180,32.227,20.020,-66.895,0
191344.688,31.250,33.203,41.016,14.160,-66.406,0
191344.692,18.066,28.809,44.434,29.785,19.043,0
191344.696,15.137,33.203,38.574,28.320,48.340,0
191344.700,29.297,38.086,32.715,19.043,15.137,1
191344.704,33.691,28.320,30.762,36.133,22.461,0
191344.707,33.691,21.484,22.461,55.664,56.641,0
191344.711,28.809,28.809,12.695,47.852,87.891,0
191344.715,21.484,31.250,18.555,17.090,67.871,0
191344.719,21.973,31.250,28.809,10.254,19.531,0
191344.723,8.789,37.598,33.691,17.090,53.223,0
191344.727,5.371,35.156,39.551,32.715,108.398,0
191344.731,21.484,37.598,43.945,22.949,67.871,0
191344.735,22.461,32.227,41.504,8.301,20.508,0
191344.739,16.113,25.879,30.762,12.695,25.391,0
191344.743,26.855,25.391,31.738,30.273,41.992,0
191344.747,38.574,23.926,28.320,46.875,80.566,0
191344.750,31.738,33.203,11.230,30.273,107.910,0
191344.754,16.602,33.691,13.184,9.277,71.289,0
191344.758,10.254,29.297,29.297,21.484,62.988,0
191344.762,20.996,29.297,35.156,37.598,74.219,0
191344.766,19.531,37.109,27.344,25.879,14.160,0
191344.770,19.043,35.156,35.645,13.672,-42.480,0
191344.774,26.367,28.809,42.480,25.879,-26.367,0
191344.778,33.203,25.879,28.809,47.363,32.715,0
191344.782,31.250,31.250,26.367,25.879,51.270,0
191344.786,20.996,32.715,40.527,6.836,22.461,0
191344.789,29.297,19.531,40.039,11.719,-0.488,0
191344.793,27.344,11.719,34.668,25.391,36.621,0
191344.797,9.277,20.020,35.645,19.043,27.344,0
191344.801,11.230,36.133,27.344,7.812,-15.137,0
191344.805,15.137,47.363,26.855,17.090,-6.348,0
191344.809,21.973,42.969,27.344,31.250,44.922,0
191344.813,32.715,39.062,26.367,38.574,85.938,0
191344.817,38.086,39.062,38.574,36.621,53.223,0
191344.821,34.180,38.086,44.434,33.691,11.230,0
191344.825,28.320,24.902,33.691,49.805,34.180,0
191344.829,30.762,8.789,22.949,46.875,86.914,0
191344.832,20.508,18.555,21.484,11.719,36.621,0
191344.836,3.906,30.762,24.902,5.859,2.441,0
191344.840,5.371,39.551,27.832,17.090,9.766,0
191344.844,14.648,34.668,32.227,33.691,41.504,0
191344.848,21.973,31.250,35.645,29.297,38.086,0
191344.852,15.625,39.062,35.156,12.695,-14.160,0
191344.856,4.883,33.203,36.621,25.391,-16.113,0
191344.860,19.043,33.691,29.785,39.062,32.715,0
191344.864,35.645,35.645,22.949,43.945,1.465,0
191344.868,26.855,33.203,21.484,23.926,-23.926,0
191344.872,15.137,39.062,23.926,9.277,-36.621,0
191344.875,14.160,39.062,28.809,31.250,0.488,0
191344.879,23.438,36.133,30.762,41.016,74.707,0
191344.883,26.367,34.668,34.180,24.902,-12.207,0
191344.887,10.254,36.133,31.738,19.531,-52.246,0
191344.891,16.113,35.156,31.250,39.551,-0.488,0
191344.895,30.273,28.320,27.344,41.992,36.621,0
191344.899,18.066,30.273,18.066,17.578,42.480,0
191344.903,16.602,46.875,25.879,12.695,-15.625,0
191344.907,19.043,46.387,41.016,30.762,-5.859,0
191344.911,22.949,32.715,38.086,40.527,42.969,0
191344.914,32.227,30.273,30.762,29.297,24.414,0
191344.918,29.297,25.879,22.949,24.414,-17.578,0
191344.922,26.855,20.508,20.996,34.668,-19.531,0
191344.926,39.062,22.949,23.438,38.086,17.578,0
191344.930,36.621,33.203,23.438,29.785,37.109,0
191344.934,20.020,41.992,27.344,17.090,51.270,0
191344.938,15.625,37.598,26.367,13.184,1.953,0
191344.942,21.973,30.762,27.344,29.785,26.367,0
191344.946,15.625,31.250,28.320,38.086,60.547,0
191344.950,21.484,37.598,33.203,22.461,-23.438,0
191344.954,23.926,39.062,36.133,19.043,-52.734,0
191344.957,21.484,30.273,30.273,33.203,-4.883,0
191344.961,23.926,24.414,29.297,30.762,20.020,0
191344.965,23.438,31.250,22.461,17.578,9.766,0
191344.969,15.625,35.156,24.414,11.230,-18.555,0
191344.973,9.766,32.227,35.645,15.625,-24.414,0
191344.977,20.020,31.738,35.645,29.297,52.734,0
191344.981,18.555,30.762,30.762,27.344,66.895,0
191344.985,16.602,25.391,23.438,15.137,-8.789,0
191344.989,24.414,27.832,28.320,21.484,-26.855,0
191344.993,18.066,35.156,39.062,39.551,35.645,0
191344.997,19.043,31.738,37.598,34.668,40.527,0
191345.000,29.785,30.273,27.832,18.066,1.953,0
191345.004,25.879,37.109,15.625,21.484,5.371,0
191345.008,20.996,30.762,17.578,34.668,11.719,0
191345.012,23.438,23.438,31.250,35.156,52.734,0
191345.016,20.508,30.273,44.434,16.602,51.758,0
191345.020,23.926,28.809,49.316,12.207,31.250,0
191345.024,17.578,25.391,42.969,27.832,36.621,0
191345.028,16.602,26.855,38.086,35.645,20.508,0
191345.032,37.109,30.762,34.668,28.320,-8.789,0
191345.036,26.367,34.180,37.109,20.996,-11.230,0
191345.039,8.789,29.785,35.156,17.578,5.371,0
191345.043,20.508,32.715,28.809,33.691,7.812,0
191345.047,28.320,35.156,26.855,38.574,1.953,0
191345.051,25.391,34.180,20.020,20.508,2.441,0
191345.055,19.531,29.297,23.438,17.578,11.719,0
191345.059,17.090,25.391,36.621,26.367,47.852,0
191345.063,20.996,32.227,36.621,25.391,33.203,0
191345.067,14.160,38.574,29.297,10.254,-4.883,0
191345.071,12.695,31.250,33.691,22.949,7.324,0
191345.075,17.090,17.090,36.133,40.039,52.246,0
191345.079,18.555,13.184,37.109,41.016,90.820,0
191345.082,23.438,25.879,32.227,27.832,49.316,0
191345.086,21.973,36.133,22.461,11.230,-22.461,0
191345.090,18.066,36.621,31.738,26.367,-36.133,0
191345.094,24.414,34.180,38.574,47.363,22.461,0
191345.098,26.367,37.109,38.086,32.227,22.949,0
191345.102,20.996,35.645,41.504,14.160,-15.625,0
191345.106,15.625,28.320,41.504,22.461,-11.230,0
191345.110,16.602,26.855,39.062,35.156,31.738,0
191345.114,30.762,24.902,41.016,33.203,66.406,0
191345.118,31.738,16.113,35.156,19.531,9.277,0
191345.122,19.043,21.484,29.297,20.508,-23.926,0
191345.125,24.414,27.344,32.715,40.527,58.105,0
191345.129,24.414,24.414,27.344,42.969,102.051,0
191345.133,18.066,27.344,24.902,26.855,41.504,0
191345.137,16.602,24.902,32.227,15.625,-0.977,0
191345.141,14.160,25.879,31.250,21.973,32.715,0
191345.145,22.461,28.809,35.645,29.297,69.336,0
191345.149,18.066,27.832,41.016,17.090,62.500,0
191345.153,7.812,21.973,36.133,16.113,14.648,0
191345.157,5.371,21.973,31.738,21.484,64.941,0
191345.161,10.254,27.344,30.762,31.250,94.727,0
191345.164,11.719,28.809,36.133,31.250,50.293,0
191345.168,10.254,29.785,32.715,16.602,32.715,0
191345.172,10.742,26.855,27.832,20.996,35.645,0
191345.176,16.602,29.297,20.996,38.086,60.059,0
191345.180,26.855,32.227,20.996,37.109,52.246,0
191345.184,32.715,36.133,33.691,19.043,20.020,0
191345.188,25.391,41.504,39.551,4.395,-14.648,0
191345.192,21.973,32.715,36.621,15.137,10.742,0
191345.196,29.297,30.762,29.297,29.297,56.152,0
191345.200,32.715,34.668,34.180,20.508,39.551,0
191345.204,19.531,31.250,37.598,19.531,33.203,0
191345.207,22.949,23.438,26.855,35.156,45.410,0
191345.211,42.480,21.973,27.344,35.645,36.621,0
191345.215,25.391,26.855,34.668,17.578,18.555,0
191345.219,5.371,33.203,35.645,10.254,14.648,0
191345.223,3.418,31.738,36.621,19.531,19.531,0
191345.227,8.301,22.461,37.109,30.273,45.898,0
191345.231,11.230,9.766,28.320,26.855,36.133,0
191345.235,14.160,19.043,24.902,20.996,-5.371,0
191345.239,16.602,35.645,30.273,22.949,-47.852,0
191345.243,13.672,35.156,28.320,22.461,-3.906,0
191345.247,2.930,29.297,26.855,1.953,39.062,0
191345.250,-0.488,24.414,30.762,-6.836,-16.113,0
191345.254,6.348,28.320,27.832,6.348,-62.500,0
191345.258,7.812,30.273,26.367,12.207,-35.645,0
191345.262,13.672,29.785,28.809,21.484,53.711,0
191345.266,12.207,33.691,28.809,22.461,43.457,0
191345.270,12.207,24.414,33.691,20.020,-24.414,0
191345.274,17.578,18.555,33.691,25.391,-25.879,0
191345.278,19.043,20.996,37.109,36.133,33.691,0
191345.282,19.043,34.668,43.945,29.785,57.129,0
191345.286,21.484,42.969,35.156,22.461,49.316,0
191345.289,16.602,28.320,26.367,23.438,68.848,0
191345.293,16.113,20.020,25.391,25.879,87.402,0
191345.297,27.344,21.973,26.367,28.320,67.383,0
191345.301,33.691,29.785,34.668,17.578,20.996,0
191345.305,20.020,36.621,29.785,9.766,13.672,0
191345.309,12.695,32.227,20.508,20.996,76.172,0
191345.313,17.578,26.367,37.598,24.902,87.891,0
191345.317,14.648,36.621,50.781,17.090,57.129,0
191345.321,19.043,37.109,43.457,22.461,48.828,0
191345.325,15.137,21.484,26.367,39.551,34.668,0
191345.329,16.113,29.297,25.879,49.316,41.992,0
191345.332,25.879,30.273,28.809,27.344,28.320,0
191345.336,14.160,19.531,24.902,6.348,-9.766,0
191345.340,3.418,24.902,24.902,14.648,7.324,0
191345.344,-0.488,32.715,28.320,28.320,56.641,0
191345.348,14.648,34.180,36.133,19.043,46.387,0
191345.352,29.785,38.086,37.109,14.648,10.742,0
191345.356,19.531,40.039,30.762,21.484,9.277,0
191345.360,20.020,28.320,26.367,43.457,36.133,0
191345.364,22.949,20.508,32.715,44.434,62.012,0
191345.368,20.996,27.832,40.527,21.973,55.664,0
191345.372,20.020,34.668,35.645,23.926,11.719,0
191345.375,20.996,36.133,21.973,35.645,28.809,0
191345.379,29.297,34.668,18.066,30.762,120.117,0
191345.383,34.180,38.574,29.297,21.973,58.594,1
191345.387,35.645,38.574,36.133,30.762,-41.504,0
191345.391,29.297,26.367,41.992,36.133,-28.320,0
191345.395,21.973,25.879,47.363,36.133,8.789,0
191345.399,30.762,32.227,40.039,32.227,31.738,0
191345.403,28.809,33.203,26.855,36.133,-3.906,0
191345.407,20.508,26.855,24.414,31.250,-3.906,0
191345.411,23.926,23.438,26.855,45.410,50.293,0
191345.414,23.926,31.738,22.949,52.734,63.477,0
191345.418,19.043,31.738,30.273,25.391,24.414,0
191345.422,13.672,32.227,36.133,21.973,8.301,0
191345.426,17.090,35.156,37.598,36.133,81.055,0
191345.430,27.832,28.809,34.668,35.156,82.031,0
191345.434,22.949,26.367,28.809,20.996,-4.883,0
191345.438,12.695,26.855,27.832,17.090,2.441,0
191345.442,19.043,31.738,26.367,14.648,54.199,0
191345.446,29.297,33.691,30.762,22.949,63.965,0
191345.450,25.391,35.156,28.320,30.273,17.090,0
191345.454,24.414,38.574,25.879,27.344,13.672,0
191345.457,25.879,36.133,34.668,31.250,70.801,0
191345.461,27.344,26.855,40.039,37.109,123.535,0
191345.465,23.438,31.250,39.062,29.297,67.383,0
191345.469,19.043,43.457,34.180,7.324,-0.977,0
191345.473,20.508,27.344,37.109,17.090,38.086,0
191345.477,25.391,24.902,38.086,45.410,88.867,0
191345.481,24.902,44.434,33.203,35.156,58.594,0
191345.485,23.926,49.805,28.809,20.020,36.133,0
191345.489,19.043,49.805,24.902,23.438,49.805,0
191345.493,17.090,43.945,22.949,25.391,51.758,0
191345.497,23.926,34.668,25.391,29.297,72.754,0
191345.500,20.508,37.598,31.250,25.391,88.867,0
191345.504,16.113,27.832,34.180,19.043,94.727,0
191345.508,20.020,16.113,32.715,34.668,56.152,0
191345.512,25.879,27.832,28.320,42.480,39.062,0
191345.516,25.391,37.109,28.809,27.344,59.570,0
191345.520,26.367,38.574,35.156,31.738,9.766,0
191345.524,18.066,36.133,36.133,39.551,-4.883,0
191345.528,19.531,35.156,32.715,27.344,46.875,0
191345.532,27.344,33.691,26.367,18.066,43.945,0
191345.536,22.949,29.785,28.320,15.625,22.949,0
191345.539,18.555,27.344,22.949,21.973,10.742,0
191345.543,17.090,21.484,11.230,37.109,37.109,0
191345.547,16.602,25.879,16.602,26.367,65.918,0
191345.551,19.531,31.250,30.273,5.371,-9.766,0
191345.555,19.043,24.414,42.969,13.672,-34.180,0
191345.559,4.395,20.508,51.758,27.832,33.203,0
191345.563,9.766,27.832,44.922,32.715,55.664,0
191345.567,18.555,37.598,34.668,23.926,-14.160,0
191345.571,13.672,36.133,27.344,14.160,-64.941,0
191345.575,21.973,24.414,22.461,24.902,-6.348,0
191345.579,29.297,30.273,16.602,30.762,65.430,0
191345.582,22.461,35.645,19.043,20.020,58.594,0
191345.586,12.695,29.297,24.902,9.277,31.250,0
191345.590,14.648,21.973,30.762,21.973,33.203,0
191345.594,11.230,22.461,39.551,28.320,83.984,0
191345.598,19.531,21.973,41.992,17.578,69.824,0
191345.602,25.879,22.949,39.062,11.230,9.277,0
191345.606,17.090,37.598,36.133,15.137,5.371,0
191345.610,33.203,35.156,38.086,35.156,35.156,0
191345.614,35.645,26.855,32.227,35.156,28.320,0
191345.618,21.484,31.250,19.531,14.160,-10.742,0
191345.622,32.715,20.508,14.648,14.648,-38.086,0
191345.625,35.645,17.578,16.602,36.621,24.414,0
191345.629,28.320,33.203,26.855,41.504,50.293,0
191345.633,29.785,32.715,39.551,23.438,5.859,0
191345.637,31.738,36.133,41.504,14.160,20.508,0
191345.641,27.832,42.969,44.922,22.949,54.688,0
191345.645,31.738,34.668,46.875,38.086,76.172,0
191345.649,35.156,30.762,40.039,33.691,54.199,0
191345.653,19.531,41.504,29.297,15.625,32.227,0
191345.657,13.672,49.316,15.625,23.926,45.898,0
191345.661,24.414,29.785,7.324,38.086,100.098,0
191345.664,32.227,15.625,20.508,17.090,60.547,0
191345.668,28.809,26.367,43.945,5.371,-26.855,0
191345.672,20.508,34.668,46.387,20.508,-3.906,0
191345.676,21.973,32.227,41.504,32.227,26.855,0
191345.680,29.785,32.715,37.109,22.949,0.000,0
191345.684,25.879,39.551,22.461,8.301,-19.043,0
191345.688,10.254,37.109,20.996,20.508,-12.207,0
191345.692,12.695,32.227,20.996,33.691,18.066,0
191345.696,16.113,27.832,7.812,34.180,20.996,0
191345.700,23.926,18.066,20.996,34.180,3.418,0
191345.704,26.367,23.926,41.016,29.785,-6.348,0
191345.707,22.949,30.762,48.828,35.645,19.531,0
191345.711,28.809,33.691,47.363,44.434,46.387,0
191345.715,30.273,44.922,40.527,37.598,19.531,0
191345.719,22.949,42.480,33.691,18.066,-24.902,0
191345.723,16.113,37.598,24.414,10.254,25.391,0
191345.727,18.066,37.598,18.066,37.109,111.816,0
191345.731,26.367,33.203,22.949,31.738,107.910,0
191345.735,30.273,32.227,28.809,19.043,43.945,0
191345.739,26.855,29.297,27.832,23.926,20.996,0
191345.743,31.738,27.344,35.156,47.852,70.801,0
191345.747,34.180,29.785,41.016,50.781,83.984,0
191345.750,26.367,32.715,42.969,25.391,29.297,0
191345.754,13.672,39.551,36.621,15.625,-13.184,0
191345.758,14.648,42.969,28.809,29.297,16.602,0
191345.762,22.461,39.062,40.039,49.316,83.984,0
191345.766,22.461,39.551,43.945,29.297,34.668,0
191345.770,25.879,42.969,22.949,12.207,-33.691,0
191345.774,14.648,40.039,18.066,30.273,18.066,0
191345.778,11.719,28.809,38.086,47.363,34.180,0
191345.782,20.508,24.902,48.340,20.020,18.555,0
191345.786,22.461,26.855,42.480,7.324,38.574,0
191345.789,18.066,31.250,36.133,17.090,62.988,0
191345.793,22.461,30.273,29.297,34.668,61.523,0
191345.797,21.973,32.227,28.809,33.203,56.152,0
191345.801,22.461,40.039,30.273,15.137,55.176,0
191345.805,21.484,38.086,25.879,18.555,23.926,0
191345.809,15.625,27.344,19.531,32.715,23.926,0
191345.813,23.926,26.855,22.461,34.180,23.438,0
191345.817,29.785,38.086,35.645,27.344,17.578,0
191345.821,22.949,29.785,37.598,25.879,30.273,0
191345.825,23.438,20.996,29.785,33.691,66.406,0
191345.829,28.809,20.996,30.273,36.621,102.051,0
191345.832,31.738,27.344,31.738,5.859,56.641,0
191345.836,23.438,35.645,31.250,-7.812,7.324,0
191345.840,18.066,37.109,29.297,26.855,-6.348,0
191345.844,29.785,39.062,25.879,42.969,30.273,0
191345.848,29.297,35.645,25.879,32.715,61.035,0
191345.852,23.926,28.809,29.297,23.926,7.324,0
191345.856,24.414,22.461,26.367,26.855,-20.508,0
191345.860,17.090,26.367,18.555,39.062,17.578,0
191345.864,22.461,31.738,28.809,41.504,56.152,0
191345.868,30.762,31.738,35.645,20.508,19.531,0
191345.872,20.996,36.133,26.855,13.672,-49.805,0
191345.875,25.391,27.344,31.738,35.156,6.348,0
191345.879,31.738,24.414,36.133,41.504,95.215,0
191345.883,30.762,38.086,31.738,22.461,23.438,0
191345.887,26.367,41.504,33.203,16.113,-44.922,0
191345.891,22.949,35.156,30.762,28.320,11.719,0
191345.895,25.391,33.203,30.762,32.227,53.223,0
191345.899,20.020,28.809,26.855,14.648,-3.906,0
191345.903,16.602,31.250,20.996,3.906,-37.598,0
191345.907,4.883,30.273,29.785,14.648,-12.695,0
191345.911,13.184,24.414,35.156,41.504,39.551,0
191345.914,27.832,22.949,29.297,41.504,34.668,0
191345.918,20.508,29.785,21.484,18.066,-19.531,0
191345.922,13.184,27.344,25.879,17.090,-7.812,0
191345.926,15.137,15.137,29.297,28.320,23.926,0
191345.930,19.531,19.531,32.715,42.480,38.574,0
191345.934,17.578,21.484,36.621,23.438,40.527,0
191345.938,10.742,25.391,39.062,11.230,41.016,0
191345.942,11.719,29.297,36.621,29.785,26.855,0
191345.946,15.625,23.438,27.344,33.691,33.203,0
191345.950,13.184,25.879,32.715,27.832,4.883,0
191345.954,22.461,28.320,41.016,25.879,-20.020,0
191345.957,9.277,23.926,38.574,23.926,0.977,0
191345.961,5.371,26.367,29.297,20.996,13.672,0
191345.965,23.438,35.645,15.137,12.207,6.836,0
191345.969,17.090,37.109,14.160,6.836,0.000,0
191345.973,10.742,25.879,26.367,17.578,1.953,0
191345.977,17.090,23.438,30.762,28.320,41.016,0
191345.981,18.555,31.738,34.180,22.461,67.871,0
191345.985,20.996,24.414,45.410,25.391,-4.883,0
191345.989,18.066,14.648,44.922,29.297,-27.832,0
191345.993,20.020,20.508,32.715,36.621,31.738,0
191345.997,28.320,32.715,26.367,43.457,56.641,1
191346.000,22.949,41.016,26.367,34.180,42.480,0
191346.004,17.090,33.691,28.809,19.043,-21.484,0
191346.008,16.113,25.879,31.738,18.555,-1.465,0
191346.012,22.949,28.320,29.297,28.320,60.059,0
191346.016,28.809,30.762,33.691,22.461,-0.488,0
191346.020,18.555,31.738,37.109,17.578,-28.809,0
191346.024,20.508,32.715,34.180,29.297,12.207,0
191346.028,25.391,30.273,32.227,38.574,44.434,0
191346.032,17.090,26.855,24.414,29.297,50.781,0
191346.036,11.230,29.297,20.508,12.207,-11.230,0
191346.039,8.789,24.902,28.320,11.230,-14.648,0
191346.043,16.113,24.414,32.227,36.133,48.828,0
191346.047,17.578,29.297,30.762,30.273,48.340,0
191346.051,20.020,33.691,32.227,6.348,-0.488,0
191346.055,20.996,32.715,36.621,5.859,-10.254,0
191346.059,14.648,24.902,32.715,20.020,71.289,0
191346.063,21.973,27.344,31.250,27.832,63.965,0
191346.067,24.414,34.180,32.227,23.438,-12.207,0
191346.071,15.137,32.715,25.879,19.531,4.395,0
191346.075,24.902,22.461,29.785,25.879,25.879,0
191346.079,35.645,24.414,32.715,28.809,-16.113,0
191346.082,22.949,35.156,25.879,20.508,-34.180,0
191346.086,17.090,33.203,26.855,20.508,-37.598,0
191346.090,19.531,26.855,24.414,30.273,-4.883,0
191346.094,13.184,21.973,25.879,34.180,36.621,0
191346.098,17.090,24.414,36.621,17.578,-19.043,0
191346.102,24.902,32.715,29.785,2.441,-47.363,0
191346.106,20.996,36.133,23.926,18.555,-0.488,0
191346.110,24.414,35.156,31.738,37.109,55.664,0
191346.114,25.879,34.668,31.250,27.344,32.227,0
191346.118,21.973,31.250,22.461,15.625,0.488,0
191346.122,16.602,27.832,21.484,20.996,-13.672,0
191346.125,15.137,24.414,23.926,32.715,-28.320,0
191346.129,20.996,21.484,28.320,31.250,15.137,0
191346.133,31.250,26.855,41.504,20.508,-2.930,0
191346.137,36.621,27.832,45.410,16.113,0.488,0
191346.141,32.227,28.809,35.156,16.602,10.742,0
191346.145,25.391,32.227,20.508,22.461,10.254,0
191346.149,22.949,28.320,18.066,21.484,32.227,0
191346.153,19.531,23.926,25.879,15.137,20.996,0
191346.157,22.949,30.762,35.645,24.902,30.273,0
191346.161,24.902,34.180,39.551,34.180,64.453,0
191346.164,19.531,33.203,34.668,25.879,79.590,0
191346.168,19.531,35.156,36.133,20.020,60.059,0
191346.172,18.555,29.297,40.527,21.973,26.855,0
191346.176,21.973,25.391,36.621,36.133,68.359,0
191346.180,18.555,28.809,32.227,39.062,74.707,0
191346.184,9.766,33.203,28.320,19.531,5.371,0
191346.188,7.324,36.133,28.320,5.859,-23.926,0
191346.192,16.113,26.855,33.203,21.484,-6.348,0
191346.196,25.879,20.020,27.832,37.109,27.344,0
191346.200,22.949,23.438,29.297,20.508,8.301,0
191346.204,10.254,23.438,39.551,11.230,17.578,0
191346.207,13.672,26.855,33.203,28.320,83.008,0
191346.211,27.344,36.621,24.414,45.410,100.098,0
191346.215,28.320,41.992,25.879,22.949,52.246,0
191346.219,26.855,41.016,35.645,11.230,28.809,0
191346.223,26.367,33.691,40.039,17.578,42.969,0
191346.227,34.668,32.227,34.180,33.691,68.848,0
191346.231,38.086,33.691,33.203,26.855,59.082,0
191346.235,33.691,33.691,36.621,6.836,6.348,0
191346.239,25.391,31.738,41.992,26.855,60.059,0
191346.243,27.832,19.531,40.527,43.945,93.262,0
191346.247,30.273,19.043,32.715,37.109,79.590,0
191346.250,31.738,30.762,25.391,33.691,65.430,0
191346.254,33.691,33.691,23.438,35.645,44.922,0
191346.258,29.297,30.273,28.320,39.062,65.918,0
191346.262,39.062,34.180,27.344,49.316,101.562,0
191346.266,41.016,32.715,22.461,48.340,67.871,0
191346.270,35.156,29.297,29.785,32.227,18.066,0
191346.274,27.344,31.738,42.480,25.391,12.207,0
191346.278,21.973,27.832,42.480,26.855,39.062,0
191346.282,18.555,29.297,32.227,8.789,62.988,0
191346.286,17.090,32.715,25.391,6.348,23.438,0
191346.289,21.973,28.320,28.809,25.391,-18.066,0
191346.293,19.531,20.996,29.785,28.809,31.738,0
191346.297,21.973,24.902,21.484,22.461,63.965,0
191346.301,26.367,35.156,22.949,25.879,58.105,0
191346.305,28.809,36.133,32.715,33.203,51.758,0
191346.309,33.691,30.762,32.715,32.227,54.688,0
191346.313,32.227,28.320,26.855,27.832,83.984,0
191346.317,27.344,25.391,30.762,18.066,35.156,0
191346.321,15.625,27.832,34.180,12.207,-13.184,0
191346.325,7.812,27.832,28.320,23.926,14.160,0
191346.329,22.949,29.297,23.438,24.902,63.965,0
191346.332,34.180,39.551,25.391,15.137,49.316,0
191346.336,23.438,41.504,25.391,13.672,8.301,0
191346.340,14.160,38.086,25.879,16.602,2.930,0
191346.344,28.320,33.691,32.715,28.809,43.945,0
191346.348,27.832,33.203,34.668,24.414,21.973,0
191346.352,14.648,36.133,36.133,8.789,-19.043,0
191346.356,14.648,29.297,40.527,15.137,-14.648,0
191346.360,20.508,20.020,34.668,31.250,18.066,0
191346.364,18.555,20.020,23.438,23.926,21.973,0
191346.368,19.531,20.996,20.996,9.277,-14.648,0
191346.372,21.484,23.438,20.996,16.602,-0.977,0
191346.375,17.090,30.762,23.438,17.090,33.203,0
191346.379,16.602,21.973,21.973,17.090,58.594,0
191346.383,18.555,20.996,23.438,22.461,-7.324,0
191346.387,22.461,35.156,40.527,18.555,-24.902,0
191346.391,24.902,40.039,42.969,34.668,48.828,0
191346.395,24.902,35.156,35.156,47.852,65.430,0
191346.399,22.949,30.273,30.762,34.668,41.016,0
191346.403,20.508,27.344,29.785,28.320,44.434,0
191346.407,16.602,19.531,21.484,37.598,46.387,0
191346.411,17.578,20.508,13.184,39.062,75.195,0
191346.414,14.160,25.391,35.156,30.762,59.082,0
191346.418,14.160,22.949,61.035,16.602,12.695,0
191346.422,16.602,17.578,63.477,8.301,10.254,0
191346.426,13.184,23.926,51.758,22.461,1.465,0
191346.430,17.578,34.668,34.180,28.320,24.902,0
191346.434,25.879,35.645,23.926,23.438,19.531,0
191346.438,17.578,23.926,12.207,15.137,-2.441,0
191346.442,18.555,19.043,10.742,20.996,4.883,0
191346.446,19.043,30.762,29.297,30.762,23.438,0
191346.450,15.625,31.738,35.645,12.207,-18.555,0
191346.454,15.625,31.250,28.809,14.648,-66.895,0
191346.457,18.555,33.203,32.715,29.785,-12.695,0
191346.461,24.902,35.156,41.992,32.227,11.719,0
191346.465,22.461,34.180,33.203,18.066,10.742,0
191346.469,16.602,26.855,23.438,0.488,-25.391,0
191346.473,13.184,25.879,23.438,0.000,-62.012,0
191346.477,17.578,27.832,17.578,17.578,2.441,0
191346.481,13.184,34.180,20.996,25.391,37.109,0
191346.485,12.207,37.598,34.180,30.762,-5.371,0
191346.489,14.160,38.574,30.762,20.508,-26.367,0
191346.493,16.113,32.227,21.973,24.902,35.645,0
191346.497,20.020,20.508,22.949,23.438,51.758,0
191346.500,13.672,25.879,27.344,11.230,2.930,0
191346.504,15.625,24.414,34.180,14.648,-31.738,0
191346.508,14.160,19.043,31.738,20.508,-13.184,0
191346.512,8.789,22.949,36.133,28.809,61.035,0
191346.516,13.672,23.438,41.992,14.160,17.090,0
191346.520,14.648,26.367,40.527,10.254,-26.367,0
191346.524,15.625,29.297,37.109,28.320,63.965,0
191346.528,20.508,29.785,33.203,43.457,108.887,0
191346.532,19.531,31.738,27.344,28.320,74.219,0
191346.536,18.555,28.809,30.762,8.301,59.570,0
191346.539,11.719,20.508,34.180,14.648,66.895,0
191346.543,9.766,18.555,27.344,25.879,66.406,2
191346.547,13.184,28.809,28.320,24.902,41.504,0
191346.551,9.766,40.527,34.180,7.324,42.480,0
191346.555,9.766,34.668,42.480,10.742,56.152,0
191346.559,21.973,28.809,45.410,31.250,53.711,0
191346.563,37.598,30.762,41.992,36.133,57.129,0
191346.567,33.203,34.668,41.504,18.066,33.691,0
191346.571,10.742,34.668,33.203,5.859,33.691,0
191346.575,0.977,28.809,30.273,12.207,31.738,0
191346.579,16.113,29.785,27.832,22.949,70.312,0
191346.582,23.926,33.203,17.090,18.555,66.406,0
191346.586,11.719,35.156,24.902,20.508,-16.113,0
191346.590,7.812,30.762,29.297,29.297,22.461,0
191346.594,22.949,29.785,21.484,27.344,58.594,0
191346.598,28.809,35.156,30.762,36.133,31.738,0
191346.602,34.180,32.715,42.480,35.645,36.133,0
191346.606,26.367,33.203,42.969,11.719,0.488,0
191346.610,20.020,30.762,39.062,21.973,-2.441,0
191346.614,36.621,30.273,36.133,38.574,8.789,0
191346.618,30.762,39.551,31.250,17.090,-22.949,0
191346.622,14.160,38.574,24.902,16.113,-30.273,0
191346.625,13.184,31.250,22.461,34.180,-8.789,0
191346.629,18.066,31.738,30.273,39.551,28.320,0
191346.633,20.996,36.621,41.504,30.273,25.391,0
191346.637,15.625,34.180,42.480,15.625,-15.137,0
191346.641,12.695,20.996,38.574,27.832,1.465,0
191346.645,33.203,21.484,28.320,37.598,40.527,0
191346.649,39.062,32.227,17.578,19.531,11.230,0
191346.653,29.785,34.668,25.879,14.160,-53.223,0
191346.657,20.020,31.250,43.945,18.066,-39.062,0
191346.661,18.555,32.715,47.363,30.762,40.039,0
191346.664,18.066,38.574,44.922,28.320,18.555,0
191346.668,20.020,37.109,43.945,16.113,-20.996,0
191346.672,10.742,30.273,31.738,23.926,-10.742,0
191346.676,11.719,26.855,27.344,52.734,6.836,0
191346.680,24.902,27.344,34.180,45.898,30.273,0
191346.684,23.438,23.926,32.715,11.719,9.766,0
191346.688,16.113,21.484,28.809,10.742,7.812,0
191346.692,13.184,20.020,32.227,22.949,0.488,0
191346.696,23.926,21.973,34.180,27.344,0.000,0
191346.700,25.391,31.250,30.273,18.066,-21.973,0
191346.704,19.531,37.598,28.320,13.184,14.160,0
191346.707,33.203,34.180,27.344,28.320,61.523,0
191346.711,38.574,32.227,29.297,40.527,14.160,0
191346.715,27.344,39.551,31.738,26.855,-5.371,0
191346.719,28.320,29.785,35.645,26.367,-5.859,0
191346.723,25.391,16.602,37.109,30.762,14.160,0
191346.727,22.949,20.020,29.297,34.668,56.152,0
191346.731,21.973,28.809,22.461,24.414,66.895,0
191346.735,21.973,28.320,28.320,21.973,43.457,0
191346.739,21.973,20.020,34.180,21.484,18.555,0
191346.743,19.531,24.902,27.832,24.902,36.133,0
191346.747,26.855,30.273,25.391,31.250,59.082,0
191346.750,31.738,34.668,25.391,17.090,32.227,0
191346.754,24.902,32.715,23.926,20.508,-38.086,0
191346.758,17.090,24.414,31.250,42.969,-34.668,0
191346.762,17.090,26.367,35.156,41.992,88.867,0
191346.766,25.391,28.809,25.391,30.273,139.648,0
191346.770,25.879,27.344,19.531,25.879,60.547,0
191346.774,12.695,26.367,27.832,26.855,33.203,0
191346.778,11.230,26.367,29.785,41.504,106.934,0
191346.782,30.762,26.855,25.391,34.668,105.957,0
191346.786,28.320,26.367,36.133,20.508,51.270,0
191346.789,17.090,25.391,44.434,18.555,33.203,0
191346.793,26.367,24.414,34.180,39.551,79.590,0
191346.797,33.203,23.438,29.297,41.992,82.031,0
191346.801,30.273,23.438,37.598,16.602,-15.137,0
191346.805,20.996,29.297,37.109,12.695,-11.719,0
191346.809,20.020,30.273,28.809,32.715,77.637,0
191346.813,22.949,31.738,29.297,42.480,81.055,0
191346.817,23.438,34.180,37.598,21.484,43.945,0
191346.821,15.137,30.273,38.086,3.418,43.945,0
191346.825,16.113,34.668,28.809,27.344,67.871,0
191346.829,21.973,32.227,22.949,41.016,82.031,0
191346.832,17.578,25.879,26.855,25.391,36.621,0
191346.836,16.602,30.762,27.344,25.391,0.488,0
191346.840,19.043,32.227,39.062,32.715,30.762,0
191346.844,20.020,16.113,46.875,37.109,54.688,0
191346.848,13.672,13.672,38.086,20.996,24.414,0
191346.852,17.578,25.391,34.180,15.137,-8.301,0
191346.856,18.555,20.996,31.250,20.508,-14.160,0
191346.860,19.531,26.855,21.973,32.715,27.344,0
191346.864,22.949,35.645,21.484,33.203,2.441,0
191346.868,25.879,40.039,28.320,24.414,-26.367,0
191346.872,21.973,31.250,29.785,25.391,-4.883,0
191346.875,17.090,17.578,38.574,34.180,20.020,0
191346.879,17.578,20.996,42.969,30.273,59.570,0
191346.883,19.531,22.949,29.785,12.695,10.742,0
191346.887,19.531,20.508,26.855,10.254,-24.902,0
191346.891,21.973,20.020,38.574,16.602,-1.953,0
191346.895,22.461,30.273,41.016,17.090,34.180,0
191346.899,19.043,36.133,34.668,20.508,66.406,0
191346.903,16.602,32.227,24.902,26.855,77.637,0
191346.907,15.137,29.297,24.414,33.203,51.758,0
191346.911,20.508,29.297,32.227,35.156,64.453,0
191346.914,21.484,26.855,32.227,20.996,49.805,0
191346.918,20.508,25.391,32.715,8.301,-11.719,0
191346.922,18.555,28.809,35.645,12.695,-12.207,0
191346.926,22.461,29.297,37.598,36.133,21.484,0
191346.930,36.621,31.738,40.527,45.898,37.109,0
191346.934,38.086,31.738,35.645,26.855,-25.879,0
191346.938,16.602,24.902,22.461,14.648,-87.891,0
191346.942,13.184,24.414,18.555,27.832,-18.066,0
191346.946,27.344,20.996,19.531,45.410,42.969,0
191346.950,33.203,22.949,31.250,28.320,5.859,0
191346.954,27.344,25.879,49.316,13.184,-48.828,0
191346.957,19.043,22.461,47.852,28.809,-0.488,0
191346.961,32.227,26.367,41.504,38.086,77.148,0
191346.965,33.203,33.691,38.574,31.738,39.551,0
191346.969,21.973,36.133,31.250,21.484,-0.977,0
191346.973,20.508,28.809,27.344,24.902,12.207,0
191346.977,18.555,26.367,29.785,51.270,69.336,0
191346.981,25.391,25.879,34.668,44.434,26.855,0
191346.985,29.785,30.273,37.598,25.391,-37.598,0
191346.989,27.832,35.645,36.621,29.297,-20.996,0
191346.993,30.762,30.273,33.203,46.387,10.742,0
191346.997,26.855,20.508,36.621,44.922,46.875,0
191347.000,26.855,20.996,38.086,16.602,12.207,0
191347.004,30.273,27.832,37.109,17.578,-24.902,0
191347.008,23.438,25.879,31.738,15.625,47.363,0
191347.012,21.973,29.785,20.020,22.949,130.371,0
191347.016,23.926,37.598,20.508,30.273,82.031,0
191347.020,24.902,35.645,32.715,23.438,16.113,0
191347.024,21.484,34.180,40.039,26.367,45.410,0
191347.028,19.531,29.785,37.598,21.484,105.957,0
191347.032,15.137,27.344,34.668,16.602,105.957,0
191347.036,26.855,32.715,35.645,22.461,43.945,0
191347.039,24.902,32.227,28.320,23.438,36.621,0
191347.043,19.531,30.273,20.020,32.227,123.535,0
191347.047,29.297,27.832,24.414,32.227,125.000,0
191347.051,30.273,27.344,23.926,15.625,45.898,0
191347.055,25.391,29.297,21.973,14.648,57.617,0
191347.059,20.996,26.855,30.762,30.762,111.328,0
191347.063,21.973,30.273,39.062,47.852,96.191,0
191347.067,29.785,36.133,41.016,44.922,48.828,0
191347.071,30.273,29.785,38.574,35.645,36.621,0
191347.075,19.531,24.414,34.180,33.691,44.434,0
191347.079,19.531,34.180,30.273,35.156,81.055,0
191347.082,20.508,38.574,24.414,27.344,74.219,0
191347.086,18.066,39.062,16.602,10.254,6.836,0
191347.090,16.602,35.645,24.414,13.184,26.855,0
191347.094,17.090,27.832,30.762,38.086,56.641,0
191347.098,20.020,26.367,31.738,9.766,18.555,0
191347.102,21.973,26.855,34.668,-3.418,23.438,0
191347.106,19.043,21.973,35.156,24.902,35.156,0
191347.110,22.461,16.113,31.738,36.133,87.891,0
191347.114,20.996,20.996,30.273,25.391,95.703,0
191347.118,20.020,32.227,30.273,18.555,18.066,0
191347.122,22.461,37.598,29.297,29.297,6.348,0
191347.125,27.832,34.180,21.484,45.898,55.176,0
191347.129,40.527,35.156,18.555,56.641,69.336,0
191347.133,33.691,39.551,26.367,35.156,25.879,0
191347.137,24.902,35.156,37.598,16.113,15.625,0
191347.141,25.391,24.414,44.434,35.156,39.551,0
191347.145,30.273,25.879,39.062,40.527,109.863,0
191347.149,23.438,27.832,37.109,17.578,84.473,0
191347.153,13.184,24.414,32.715,5.859,2.441,0
191347.157,13.184,26.855,26.855,14.160,23.926,1
191347.161,15.625,28.320,30.273,46.387,66.895,0
191347.164,23.926,31.738,25.391,32.227,39.062,0
191347.168,24.902,35.156,27.344,10.742,-7.812,0
191347.172,16.113,30.273,37.598,19.043,-11.230,0
191347.176,18.555,30.273,37.598,22.949,0.977,0
191347.180,26.855,32.227,36.621,22.461,3.906,0
191347.184,26.855,25.391,33.691,20.508,30.273,0
191347.188,14.648,20.996,30.273,20.020,60.547,0
191347.192,11.230,24.902,24.414,33.203,68.359,0
191347.196,26.855,28.809,21.973,39.551,71.777,0
191347.200,30.273,34.180,26.367,14.648,33.691,0
191347.204,22.461,33.691,27.344,7.324,13.672,0
191347.207,22.461,30.273,36.621,35.645,40.527,0
191347.211,24.414,28.320,45.410,52.734,60.059,0
191347.215,27.344,28.320,41.016,31.738,22.461,0
191347.219,27.344,27.832,38.574,12.695,-18.066,0
191347.223,18.066,20.508,33.691,23.926,-50.781,0
191347.227,16.602,17.578,24.902,36.621,-31.250,0
191347.231,18.555,29.297,20.996,22.461,10.742,0
191347.235,23.438,36.133,25.879,17.578,-45.410,0
191347.239,18.555,33.691,26.367,18.066,-48.340,0
191347.243,15.137,28.809,28.320,16.113,24.414,0
191347.247,21.484,34.180,31.250,18.555,34.668,0
191347.250,19.043,36.621,24.902,9.277,-32.227,0
191347.254,15.137,26.367,27.832,7.812,-71.777,0
191347.258,22.461,21.973,39.551,25.879,-7.324,0
191347.262,19.531,19.043,44.434,33.691,64.453,0
191347.266,15.137,22.949,41.992,12.695,16.602,0
191347.270,18.555,27.832,38.086,5.371,-22.949,0
191347.274,19.531,26.855,34.180,25.391,-18.555,0
191347.278,30.762,22.461,28.809,36.621,1.465,0
191347.282,32.227,30.762,29.297,29.785,13.184,0
191347.286,18.066,39.062,35.156,10.742,-0.977,0
191347.289,8.789,37.109,31.250,13.184,2.441,0
191347.293,13.184,33.203,24.902,32.227,25.879,0
191347.297,25.391,34.180,29.785,24.902,12.695,0
191347.301,16.602,36.133,35.156,7.812,-48.340,0
191347.305,5.859,32.715,29.785,1.953,-83.984,0
191347.309,8.789,27.344,28.809,14.160,-54.199,0
191347.313,13.672,26.855,34.180,20.508,-60.059,0
191347.317,11.719,33.203,34.668,10.254,-68.359,0
191347.321,9.766,33.203,29.785,5.371,-23.438,0
191347.325,16.602,26.367,24.902,18.555,5.859,0
191347.329,23.438,30.273,24.414,34.180,62.500,0
191347.332,22.949,29.785,24.414,26.855,51.270,0
191347.336,16.602,26.367,25.391,13.672,8.301,0
191347.340,11.719,25.391,30.762,15.137,17.578,0
191347.344,17.090,27.344,30.762,20.508,49.316,0
191347.348,5.371,26.855,29.785,14.160,68.848,0
191347.352,5.371,26.367,29.785,5.859,52.246,0
191347.356,17.578,26.855,27.832,12.695,-4.395,0
191347.360,16.113,27.832,26.855,31.738,23.926,0
191347.364,21.973,30.273,26.367,36.621,68.848,0
191347.368,20.996,32.715,27.344,11.230,28.320,0
191347.372,24.414,33.691,34.180,7.324,-12.695,0
191347.375,25.391,29.785,30.762,29.785,21.484,0
191347.379,23.438,21.973,20.020,28.320,29.785,0
191347.383,26.367,18.555,27.832,4.883,-12.695,0
191347.387,21.973,26.855,41.504,1.465,-10.254,0
191347.391,18.555,33.691,38.574,16.113,46.875,0
191347.395,25.391,33.203,28.809,33.691,74.219,0
191347.399,30.762,36.621,30.273,20.996,21.484,0
191347.403,28.320,38.086,41.016,6.836,9.277,0
191347.407,24.902,37.109,40.039,20.996,66.406,0
191347.411,29.297,31.738,34.180,38.574,130.859,0
191347.414,32.715,29.297,27.832,20.996,73.242,0
191347.418,33.691,34.180,22.461,5.371,-16.602,0
191347.422,29.297,26.367,33.203,25.391,-3.418,0
191347.426,23.438,19.043,45.410,34.668,67.383,0
191347.430,20.996,25.879,33.691,29.785,64.453,0
191347.434,18.555,33.203,25.879,5.859,-1.953,0
191347.438,13.672,41.992,35.156,4.395,-36.621,0
191347.442,12.207,44.434,42.480,26.855,1.953,0
191347.446,20.996,41.016,42.480,36.133,35.645,0
191347.450,22.949,38.574,31.738,19.531,-15.137,0
191347.454,9.766,36.133,25.879,3.418,13.184,0
191347.457,4.883,32.227,28.320,21.484,17.090,0
191347.461,13.184,24.414,26.367,30.762,-19.043,0
191347.465,14.160,25.391,27.344,13.184,-12.207,0
191347.469,16.602,26.855,22.949,5.859,16.113,0
191347.473,15.625,20.508,30.273,13.672,39.551,0
191347.477,16.113,17.578,44.434,31.738,56.152,0
191347.481,23.438,20.996,44.922,32.715,46.387,0
191347.485,16.602,28.320,38.574,10.742,11.230,0
191347.489,9.277,24.902,31.250,13.672,-27.344,0
191347.493,16.113,23.926,31.250,30.273,21.973,0
191347.497,18.066,30.273,31.738,34.180,83.008,0
191347.500,20.508,33.203,32.715,18.555,52.246,0
191347.504,17.578,34.180,38.574,12.207,14.160,0
191347.508,15.137,31.738,36.133,16.602,23.926,0
191347.512,28.320,28.809,24.902,30.762,72.754,0
191347.516,25.391,29.297,21.484,21.484,32.715,0
191347.520,21.484,25.879,30.762,13.184,-24.414,0
191347.524,22.949,21.484,41.016,30.273,10.742,0
191347.528,17.090,19.043,45.898,39.551,88.867,0
191347.532,22.949,26.367,35.156,40.039,76.660,0
191347.536,17.090,36.133,18.066,14.160,-1.465,0
191347.539,15.137,30.273,23.438,18.066,-18.555,0
191347.543,32.715,31.250,30.273,45.898,58.594,0
191347.547,37.598,31.738,26.367,42.480,105.469,0
191347.551,25.879,26.855,27.832,27.832,47.363,0
191347.555,14.160,26.367,34.668,21.973,-0.488,0
191347.559,24.414,22.949,33.691,31.738,54.688,0
191347.563,26.855,23.438,32.227,35.156,69.336,0
191347.567,21.484,34.180,40.527,30.273,9.277,0
191347.571,22.461,35.645,43.457,15.137,-11.230,0
191347.575,24.414,29.785,36.621,25.879,17.578,0
191347.579,24.414,24.414,34.668,46.875,78.613,0
191347.582,33.203,27.344,31.738,28.320,22.461,0
191347.586,37.109,34.180,26.855,24.902,-25.879,0
191347.590,22.949,39.062,31.738,32.715,0.488,0
191347.594,25.391,33.203,40.039,42.480,20.996,0
191347.598,26.367,26.367,36.621,22.461,8.301,0
191347.602,11.230,28.809,34.180,12.695,-1.953,0
191347.606,12.207,21.484,31.250,25.391,18.555,0
191347.610,24.902,19.531,28.809,29.785,65.918,0
191347.614,26.367,29.785,27.832,33.203,87.402,0
191347.618,23.926,24.902,32.227,19.531,34.180,0
191347.622,19.531,16.602,40.527,21.484,15.137,0
191347.625,13.672,21.484,39.062,41.504,38.086,0
191347.629,22.461,29.297,41.992,39.062,43.457,0
191347.633,23.438,36.621,46.875,17.578,4.883,0
191347.637,12.207,35.645,43.457,12.695,-38.086,0
191347.641,13.184,32.227,37.109,26.855,-15.137,0
191347.645,20.996,30.762,26.855,28.320,38.574,0
191347.649,21.484,36.621,21.484,7.812,82.520,0
191347.653,19.531,35.645,29.785,11.230,17.090,0
191347.657,18.555,27.344,31.250,37.109,-18.555,0
191347.661,28.320,19.531,26.855,43.945,61.035,0
191347.664,31.250,13.672,33.691,27.344,88.379,0
191347.668,15.137,24.902,35.156,3.906,53.223,0
191347.672,13.672,23.438,36.133,15.137,57.617,0
191347.676,14.160,24.414,35.156,45.410,88.867,0
191347.680,15.625,33.203,31.738,34.668,81.543,0
191347.684,30.273,32.715,35.645,22.461,20.020,0
191347.688,27.344,30.273,37.109,21.484,-24.414,0
191347.692,7.812,25.879,34.668,18.555,12.695,0
191347.696,0.977,24.414,26.367,16.602,94.727,0
191347.700,6.836,25.391,21.484,3.418,65.918,0
191347.704,8.301,29.297,28.809,-1.465,7.812,0
191347.707,9.277,21.484,34.180,24.414,48.828,0
191347.711,13.184,19.043,28.809,35.156,100.586,2
191347.715,14.648,26.855,27.344,16.602,59.570,0
191347.719,9.766,29.785,37.598,9.766,44.922,0
191347.723,8.789,28.809,34.668,19.531,72.266,0
191347.727,19.043,28.320,22.949,29.785,109.863,0
191347.731,25.391,29.297,27.832,25.879,115.723,0
191347.735,19.043,26.367,37.109,9.766,62.012,0
191347.739,11.719,27.832,32.227,5.859,61.035,0
191347.743,19.531,28.809,30.273,30.273,124.512,0
191347.747,21.484,25.879,38.574,30.273,139.648,0
191347.750,22.949,24.414,43.457,15.625,96.191,0
191347.754,22.949,25.879,38.574,31.738,59.082,0
191347.758,20.508,25.391,32.715,41.504,42.480,0
191347.762,23.438,22.949,32.227,42.480,38.574,0
191347.766,20.020,23.926,26.855,18.066,-37.109,0
191347.770,22.461,28.809,26.367,4.395,-47.363,0
191347.774,38.574,30.762,31.738,23.926,-13.672,0
191347.778,38.086,24.414,32.227,34.180,39.062,0
191347.782,23.926,24.902,26.367,15.137,49.805,0
191347.786,27.832,28.809,28.320,14.648,11.719,0
191347.789,21.973,27.832,37.109,18.066,32.227,0
191347.793,13.184,25.391,38.086,26.367,74.219,0
191347.797,17.090,16.602,34.668,32.715,83.496,0
191347.801,16.113,16.113,37.109,10.742,16.113,0
191347.805,17.090,29.297,42.480,2.930,-48.828,0
191347.809,26.855,28.320,40.527,22.461,-13.672,0
191347.813,33.203,33.203,27.832,39.062,42.969,0
191347.817,26.367,45.410,19.043,27.344,12.695,0
191347.821,18.066,39.551,33.203,24.414,-8.789,0
191347.825,16.602,31.250,35.645,39.062,-18.555,0
191347.829,13.672,28.320,22.461,34.668,13.184,0
191347.832,18.066,32.715,24.902,18.555,41.016,0
191347.836,17.090,32.715,31.738,5.371,-28.320,0
191347.840,12.695,25.879,35.156,16.113,-51.270,0
191347.844,23.926,22.949,32.227,42.969,48.340,0
191347.848,23.926,24.414,25.879,34.668,63.477,0
191347.852,25.879,28.809,27.832,16.602,-3.906,0
191347.856,26.367,32.227,28.320,20.996,-11.719,0
191347.860,26.367,32.227,29.785,35.645,35.645,0
191347.864,27.344,30.762,35.156,34.180,37.109,0
191347.868,17.090,32.715,37.598,19.531,2.930,0
191347.872,13.184,23.438,40.039,21.484,-11.719,0
191347.875,21.484,15.625,40.039,30.762,39.062,0
191347.879,24.414,20.996,31.738,30.762,71.289,0
191347.883,16.602,26.367,30.273,21.484,20.020,0
191347.887,15.137,24.902,24.414,26.367,39.551,0
191347.891,20.996,24.902,13.184,38.086,60.059,0
191347.895,27.832,24.902,29.785,49.316,82.520,0
191347.899,18.066,27.832,37.598,25.391,42.480,0
191347.903,3.906,29.785,29.297,4.883,-19.531,0
191347.907,10.254,29.785,35.156,14.160,5.371,0
191347.911,27.832,29.297,41.992,34.668,48.828,0
191347.914,29.785,28.320,41.504,39.062,73.730,0
191347.918,30.762,28.320,38.574,31.738,46.387,0
191347.922,29.785,27.344,36.133,29.785,43.457,0
191347.926,29.785,27.344,30.273,23.926,64.941,0
191347.930,29.297,33.203,21.973,7.324,31.250,0
191347.934,23.926,39.551,21.973,2.441,16.113,0
191347.938,22.461,32.227,32.227,12.695,12.207,0
191347.942,22.949,24.902,39.551,24.414,30.762,0
191347.946,27.344,25.879,39.551,32.715,34.180,0
191347.950,37.109,33.203,33.691,16.113,-9.766,0
191347.954,34.180,31.738,27.344,19.043,-21.973,0
191347.957,24.902,23.926,23.926,42.480,-29.785,0
191347.961,29.297,26.367,13.184,44.434,7.324,0
191347.965,27.344,32.715,11.719,25.879,7.812,0
191347.969,24.414,29.785,37.109,17.578,-44.434,0
191347.973,25.391,25.391,49.805,23.438,-41.504,0
191347.977,26.367,26.367,42.969,37.598,25.391,0
191347.981,20.996,30.273,33.691,48.340,39.062,0
191347.985,21.973,34.180,29.785,25.391,-4.883,0
191347.989,22.461,30.762,32.227,22.461,-13.672,0
191347.993,14.648,24.902,33.203,32.715,22.461,0
191347.997,29.785,26.367,38.574,32.715,28.320,0
191348.000,29.785,28.809,31.250,20.020,31.738,0
191348.004,12.207,27.344,28.320,13.184,-44.922,0
191348.008,16.113,28.320,35.645,28.809,-62.500,0
191348.012,25.879,27.832,25.879,30.762,22.949,0
191348.016,22.461,30.762,22.949,17.578,-57.129,0
191348.020,16.113,28.320,41.504,15.625,-107.422,0
191348.024,14.160,23.926,48.828,43.457,-23.926,0
191348.028,24.902,25.391,37.109,51.758,12.207,0
191348.032,37.598,26.367,36.133,29.785,5.371,0
191348.036,35.156,34.668,38.574,20.020,8.789,0
191348.039,29.297,33.691,38.086,19.043,40.039,0
191348.043,23.438,24.414,32.715,29.785,95.703,0
191348.047,28.320,26.855,21.484,30.273,91.797,0
191348.051,25.879,30.762,12.207,17.578,39.551,0
191348.055,13.672,26.367,26.855,26.367,0.977,0
191348.059,17.578,22.949,46.875,45.410,3.418,0
191348.063,23.438,26.855,44.922,29.297,15.137,0
191348.067,21.484,32.715,36.621,20.020,28.809,0
191348.071,19.043,29.785,29.785,34.668,18.555,0
191348.075,19.043,25.391,27.832,28.809,36.133,0
191348.079,18.555,28.320,33.691,30.762,99.121,0
191348.082,11.719,30.762,32.227,22.461,83.008,0
191348.086,8.301,30.762,18.066,10.254,14.648,0
191348.090,14.160,27.832,10.742,14.648,-32.227,0
191348.094,19.531,27.344,21.484,32.715,32.227,0
191348.098,28.809,29.785,25.879,38.086,57.129,0
191348.102,34.668,24.414,29.785,27.832,-48.828,0
191348.106,25.879,23.438,37.109,22.949,-50.781,0
191348.110,25.879,34.668,38.574,30.762,32.715,0
191348.114,38.574,32.227,38.086,31.250,31.738,0
191348.118,23.926,29.785,33.691,16.113,-7.324,0
191348.122,13.184,34.180,25.879,10.742,-51.758,0
191348.125,29.785,30.762,24.414,30.273,-13.184,0
191348.129,35.645,35.156,22.949,33.691,68.359,0
191348.133,39.551,41.504,16.113,21.973,8.789,0
191348.137,40.527,36.133,19.531,32.227,-41.016,0
191348.141,31.250,28.809,31.250,37.598,-0.488,0
191348.145,23.438,19.531,39.062,50.781,39.062,0
191348.149,26.855,20.020,40.527,43.945,10.254,0
191348.153,15.625,24.902,37.109,23.438,-32.227,0
191348.157,7.324,21.484,26.855,24.414,-21.973,0
191348.161,18.066,24.902,22.461,43.945,26.855,0
191348.164,20.508,34.668,25.879,32.715,44.434,0
191348.168,13.672,34.668,27.832,3.906,14.648,0
191348.172,8.301,31.738,20.996,5.859,0.977,0
191348.176,15.137,28.809,17.578,28.320,53.223,0
191348.180,12.207,27.344,25.879,35.156,53.223,0
191348.184,11.719,25.879,35.156,19.531,1.953,0
191348.188,19.531,29.297,35.645,14.160,0.000,0
191348.192,13.184,31.738,28.320,20.020,33.203,0
191348.196,20.996,29.785,22.949,26.855,42.480,0
191348.200,27.344,32.227,29.785,19.043,27.832,0
191348.204,16.113,32.227,33.691,8.789,26.367,0
191348.207,10.742,24.414,32.715,20.020,-5.859,0
191348.211,20.508,21.973,29.785,23.438,10.742,0
191348.215,21.973,32.227,18.066,1.953,41.016,0
191348.219,11.230,38.574,17.090,5.371,9.277,0
191348.223,10.742,34.668,23.438,18.555,14.160,0
191348.227,19.043,29.297,23.926,34.180,77.148,0
191348.231,21.973,27.832,25.879,32.227,66.895,0
191348.235,13.184,30.273,31.738,18.555,9.766,0
191348.239,6.836,27.344,32.715,26.855,3.418,0
191348.243,20.020,22.461,32.227,45.898,44.922,0
191348.247,28.809,26.855,38.574,54.688,53.711,0
191348.250,14.648,36.621,44.434,28.320,2.930,0
191348.254,10.254,34.180,37.109,-3.906,-34.180,0
191348.258,16.602,27.832,31.738,2.441,-23.926,0
191348.262,17.578,32.227,32.715,25.879,54.688,0
191348.266,19.531,32.227,35.645,24.902,57.617,0
191348.270,10.742,29.297,37.109,13.184,2.441,0
191348.274,4.883,25.879,34.180,17.578,-7.812,0
191348.278,14.160,18.555,31.738,31.250,59.570,0
191348.282,10.742,18.066,33.203,19.043,51.758,0
191348.286,7.324,23.926,32.715,9.277,-11.230,0
191348.289,11.230,23.926,35.156,20.996,-10.742,0
191348.293,12.207,23.926,37.598,41.016,0.000,0
191348.297,24.414,27.344,30.273,36.133,-8.301,0
191348.301,24.902,31.250,29.785,12.695,-49.805,0
191348.305,11.230,27.344,33.203,14.160,-19.043,0
191348.309,8.789,17.090,26.367,26.367,33.203,0
191348.313,12.207,22.949,29.297,29.297,25.391,0
191348.317,12.695,26.855,40.527,14.648,-35.645,0
191348.321,7.812,22.949,41.504,3.418,-52.734,0
191348.325,9.766,20.996,38.086,17.578,23.926,0
191348.329,9.766,22.949,35.645,36.621,22.461,0
191348.332,9.766,26.367,31.738,24.414,-33.203,0
191348.336,17.090,21.973,32.227,8.789,-32.227,0
191348.340,12.695,28.320,33.691,22.461,-23.438,0
191348.344,9.277,29.785,28.320,38.574,19.531,0
191348.348,11.230,27.832,23.438,26.855,3.418,0
191348.352,13.672,28.320,21.973,16.602,-43.945,0
191348.356,13.672,28.809,26.367,25.391,-3.906,0
191348.360,15.625,26.367,28.809,31.738,55.176,0
191348.364,16.602,29.297,25.391,29.297,62.988,0
191348.368,18.066,36.133,23.926,16.602,83.984,0
191348.372,9.766,28.809,31.250,19.043,52.734,0
191348.375,9.766,27.832,36.133,35.156,44.434,1
191348.379,24.902,30.273,24.902,33.691,66.406,0
191348.383,15.625,25.391,24.414,6.836,45.410,0
191348.387,10.254,27.832,36.621,0.977,-29.297,0
191348.391,15.625,26.367,35.645,16.602,-36.621,0
191348.395,20.996,24.414,30.762,24.902,58.594,0
191348.399,21.484,24.902,22.461,23.438,76.660,0
191348.403,18.555,23.438,26.367,16.602,44.922,0
191348.407,14.160,28.809,33.691,9.766,27.344,0
191348.411,16.602,31.250,32.715,20.020,83.984,0
191348.414,25.391,23.926,28.809,37.598,86.426,0
191348.418,30.273,20.020,23.438,34.668,21.484,0
191348.422,17.090,28.809,28.320,21.484,40.039,0
191348.426,15.625,30.762,38.574,36.621,71.289,0
191348.430,33.203,25.391,37.598,47.852,63.965,0
191348.434,25.879,23.926,29.297,24.414,52.246,0
191348.438,18.066,24.414,26.367,10.742,-9.277,0
191348.442,22.949,24.902,30.762,28.809,32.227,0
191348.446,29.297,24.902,36.621,43.945,133.789,0
191348.450,28.809,28.320,44.922,28.809,76.660,0
191348.454,21.484,27.832,37.109,24.902,0.977,0
191348.457,21.973,26.855,21.973,38.574,8.301,0
191348.461,22.461,27.832,28.809,33.203,60.547,0
191348.465,18.066,20.996,38.574,18.066,52.734,0
191348.469,17.090,20.020,41.504,10.742,32.715,0
191348.473,17.090,24.414,42.480,9.277,55.664,0
191348.477,20.508,26.367,39.062,25.391,77.148,0
191348.481,23.926,27.832,30.762,26.855,31.738,0
191348.485,17.578,29.785,26.855,12.695,-39.551,0
191348.489,17.090,30.762,33.203,10.742,-0.488,0
191348.493,20.020,27.344,31.250,21.973,98.633,0
191348.497,25.879,27.344,28.809,29.785,86.426,0
191348.500,27.832,32.227,32.715,20.996,6.348,0
191348.504,21.973,31.250,33.203,18.066,-3.418,0
191348.508,24.414,26.367,27.832,37.109,18.066,0
191348.512,28.320,23.926,20.508,44.434,46.875,0
191348.516,21.973,22.949,25.879,24.414,34.180,0
191348.520,19.043,24.414,38.086,20.508,17.090,0
191348.524,16.113,24.902,36.621,27.344,34.668,0
191348.528,16.602,24.414,31.250,29.785,34.668,0
191348.532,28.320,27.344,38.574,21.973,26.367,0
191348.536,27.832,31.250,37.598,18.555,15.625,0
191348.539,16.602,24.414,31.738,25.879,12.695,0
191348.543,13.672,20.996,32.715,34.180,75.195,0
191348.547,17.578,24.902,36.621,32.715,90.820,0
191348.551,22.949,32.715,39.062,30.762,33.203,0
191348.555,16.602,28.809,30.273,17.578,29.785,0
191348.559,15.137,24.414,25.391,16.602,83.496,0
191348.563,19.043,31.738,26.855,31.738,107.422,0
191348.567,16.602,29.785,27.832,23.438,69.336,0
191348.571,19.531,25.879,36.133,14.160,27.832,0
191348.575,21.973,24.414,41.504,23.926,49.316,0
191348.579,20.508,24.414,32.715,39.062,68.848,0
191348.582,20.508,27.344,37.598,25.879,42.969,0
191348.586,23.926,32.715,48.828,21.484,51.270,0
191348.590,18.066,27.344,41.016,39.062,81.055,0
191348.594,17.090,19.531,33.691,47.852,95.703,0
191348.598,27.832,23.438,39.062,40.039,75.195,0
191348.602,20.508,26.367,34.180,26.855,40.039,0
191348.606,10.254,22.949,33.691,29.785,46.387,0
191348.610,21.973,25.391,39.062,33.203,81.055,0
191348.614,26.855,29.785,34.668,35.156,98.145,0
191348.618,19.531,32.715,26.855,18.066,60.059,0
191348.622,23.926,30.273,27.344,10.254,32.227,0
191348.625,27.832,27.344,37.598,34.180,52.246,0
191348.629,26.367,29.785,35.645,39.062,40.039,0
191348.633,32.715,31.738,34.180,20.508,17.090,0
191348.637,33.691,38.574,36.133,30.273,-4.395,0
191348.641,28.809,34.668,28.320,49.316,18.066,0
191348.645,22.461,23.926,31.738,39.062,51.758,0
191348.649,27.832,31.250,41.504,17.090,7.812,0
191348.653,31.250,34.668,36.621,18.066,-19.043,0
191348.657,24.414,30.273,28.809,28.809,1.465,0
191348.661,22.949,26.367,25.879,34.668,38.086,0
191348.664,27.344,29.297,27.344,26.367,6.348,0
191348.668,19.043,31.738,38.574,21.484,-35.645,0
191348.672,10.742,32.227,45.410,16.602,5.371,0
191348.676,8.301,24.414,42.480,25.391,23.926,0
191348.680,12.207,21.484,37.598,34.180,38.086,0
191348.684,15.625,32.227,31.250,22.949,0.488,0
191348.688,15.137,33.691,29.785,20.508,-69.824,0
191348.692,18.555,30.273,22.461,25.879,-31.738,0
191348.696,22.949,28.320,23.926,36.621,18.066,0
191348.700,28.320,20.996,31.250,31.738,-6.348,0
191348.704,26.367,24.414,33.691,16.602,-70.801,0
191348.707,15.625,26.367,41.992,21.973,-36.621,0
191348.711,26.367,23.438,46.387,31.738,29.297,0
191348.715,34.180,27.344,47.852,27.344,-7.812,0
191348.719,16.602,29.785,43.945,6.836,-38.086,0
191348.723,7.324,23.438,41.016,12.207,-55.664,0
191348.727,17.578,22.461,39.551,37.109,-13.184,0
191348.731,31.250,28.809,35.645,31.738,7.324,0
191348.735,29.785,33.691,32.227,23.926,-44.434,0
191348.739,15.625,30.273,38.574,22.949,-35.645,0
191348.743,10.254,25.391,41.016,31.738,30.762,0
191348.747,25.391,24.414,38.574,40.527,72.754,0
191348.750,22.949,29.297,32.227,24.902,53.223,0
191348.754,13.184,34.180,29.297,18.555,44.434,0
191348.758,25.391,29.297,22.949,32.227,75.684,0
191348.762,30.762,26.855,15.137,38.574,113.281,0
191348.766,26.367,31.738,28.320,1.953,62.988,0
191348.770,24.902,32.715,33.203,-11.719,-3.418,0
191348.774,21.973,30.273,30.273,20.996,50.781,0
191348.778,25.879,29.785,30.273,36.621,106.445,0
191348.782,33.691,27.344,25.879,37.109,83.984,0
191348.786,29.297,20.508,27.344,25.391,68.359,0
191348.789,2.930,20.996,35.156,-0.977,72.754,0
191348.793,1.953,23.438,34.180,6.348,83.008,0
191348.797,15.137,28.809,35.645,24.902,56.641,0
191348.801,6.836,31.250,41.504,8.301,-23.438,0
191348.805,2.930,24.414,39.062,3.906,-19.043,0
191348.809,17.578,20.508,30.762,14.648,-11.230,0
191348.813,16.113,19.043,25.391,17.090,-10.742,0
191348.817,10.742,23.926,16.602,11.719,29.785,0
191348.821,15.137,20.508,19.043,9.277,8.789,0
191348.825,20.020,13.672,26.367,26.367,-6.348,0
191348.829,35.156,21.484,21.973,53.223,57.129,0
191348.832,34.668,25.391,30.762,42.480,53.223,0
191348.836,24.414,26.367,45.410,16.113,10.254,0
191348.840,16.113,31.250,46.387,10.254,-6.348,0
191348.844,24.414,29.297,41.016,27.344,40.039,0
191348.848,31.250,30.273,38.086,22.461,35.645,0
191348.852,25.879,28.320,39.062,0.000,0.000,0
191348.856,24.414,26.367,35.156,7.324,-31.250,0
191348.860,28.809,26.367,24.902,19.531,-18.555,0
191348.864,25.391,25.391,20.508,29.297,65.430,0
191348.868,18.066,25.879,21.973,27.344,21.484,0
191348.872,18.555,29.297,38.574,21.484,-38.086,0
191348.875,26.855,29.297,49.316,40.527,17.090,0
191348.879,30.273,24.902,42.480,38.086,75.195,0
191348.883,29.785,34.180,36.133,13.672,54.688,0
191348.887,21.973,42.969,30.273,7.812,18.066,0
191348.891,19.531,36.621,25.391,13.672,26.855,0
191348.895,27.344,32.227,21.973,20.508,82.031,0
191348.899,26.367,36.133,18.555,3.418,81.055,0
191348.903,22.461,35.645,18.555,1.465,17.578,0
191348.907,29.785,33.691,27.832,24.414,7.324,0
191348.911,31.738,33.203,34.180,34.668,100.098,0
191348.914,20.508,34.180,35.156,19.531,85.449,0
191348.918,22.461,31.250,27.832,5.859,-4.883,0
191348.922,19.043,25.879,22.461,9.766,-8.789,0
191348.926,13.184,26.855,26.855,22.949,30.273,0
191348.930,16.113,29.297,18.066,25.391,73.730,0
191348.934,18.555,31.738,15.625,6.836,77.637,0
191348.938,16.113,33.691,35.156,4.395,76.660,0
191348.942,22.461,35.156,32.715,25.391,94.238,0
191348.946,38.086,30.762,26.855,37.598,71.777,0
191348.950,32.715,27.832,31.250,13.672,37.598,0
191348.954,20.508,24.902,38.574,8.301,40.527,0
191348.957,9.766,19.043,57.617,15.625,38.574,0
191348.961,12.695,20.508,54.688,26.855,13.184,0
191348.965,30.273,27.344,36.133,28.809,-41.504,0
191348.969,36.133,32.715,30.762,21.973,-55.664,0
191348.973,26.367,32.227,40.527,30.762,-21.973,0
191348.977,13.672,25.879,42.969,39.551,33.691,0
191348.981,14.160,28.320,37.598,30.273,63.477,1
191348.985,16.602,39.062,27.832,19.531,41.504,0
191348.989,17.578,33.691,20.996,11.719,11.230,0
191348.993,20.508,25.879,28.809,14.648,48.828,0
191348.997,22.949,28.320,31.738,23.926,68.359,0
191349.000,23.438,32.715,37.109,7.324,20.508,0
191349.004,27.344,31.250,42.480,4.395,-16.113,0
191349.008,34.180,27.832,36.621,26.855,0.488,0
191349.012,39.062,26.855,25.391,45.898,47.363,0
191349.016,39.551,30.762,14.648,43.457,26.367,0
191349.020,33.691,29.785,18.555,31.250,-9.766,0
191349.024,26.367,20.020,29.785,39.551,31.250,0
191349.028,23.926,18.066,34.180,59.082,99.121,0
191349.032,16.113,25.879,44.434,39.062,42.480,0
191349.036,20.020,35.156,58.105,17.578,-16.602,0
191349.039,24.414,31.250,50.781,30.273,5.371,0
191349.043,30.273,29.297,19.531,48.828,40.527,0
191349.047,43.457,34.668,11.719,38.086,48.828,0
191349.051,33.691,28.320,30.762,17.090,-68.359,0
191349.055,14.648,29.297,39.551,15.625,-70.312,0
191349.059,13.184,31.250,40.039,30.273,22.949,0
191349.063,23.926,29.785,32.715,41.992,22.461,0
191349.067,30.762,31.738,24.414,28.809,0.977,0
191349.071,32.715,31.250,34.180,18.066,26.855,0
191349.075,29.297,30.273,41.016,28.809,49.316,0
191349.079,34.180,26.855,31.250,32.715,60.059,0
191349.082,36.133,31.250,26.367,19.531,38.574,0
191349.086,29.785,39.551,22.949,9.766,-15.625,0
191349.090,24.414,34.668,19.531,17.090,-5.371,0
191349.094,22.949,22.949,18.066,26.367,20.508,0
191349.098,17.090,23.438,26.855,15.625,7.812,0
191349.102,10.742,29.785,46.387,8.301,38.574,0
191349.106,14.648,30.273,44.922,13.184,38.574,0
191349.110,19.043,32.715,33.691,30.273,-9.766,0
191349.114,22.461,36.133,28.809,32.715,-6.836,0
191349.118,30.273,36.133,27.344,16.113,-25.879,0
191349.122,32.227,33.691,32.227,11.719,-16.113,0
191349.125,35.645,27.832,33.203,20.996,34.180,0
191349.129,38.574,27.344,22.949,29.785,32.227,0
191349.133,34.180,30.762,20.508,18.066,17.090,0
191349.137,21.973,30.273,23.438,19.531,11.719,0
191349.141,26.367,26.367,23.926,31.738,8.789,0
191349.145,37.109,26.367,28.809,35.645,44.434,0
191349.149,32.227,33.203,31.738,29.297,67.871,0
191349.153,34.668,32.715,39.551,23.438,12.207,0
191349.157,31.250,22.461,46.875,25.879,13.672,0
191349.161,25.391,20.020,43.457,34.668,79.102,0
191349.164,25.391,23.438,34.180,31.738,72.266,0
191349.168,21.973,24.902,32.715,20.020,14.160,0
191349.172,20.508,22.461,35.645,25.391,1.465,0
191349.176,16.602,20.996,35.156,34.668,41.504,0
191349.180,30.273,23.926,35.645,35.645,62.988,0
191349.184,41.992,27.832,34.668,26.367,17.090,0
191349.188,33.203,27.832,33.203,19.531,-33.203,0
191349.192,31.250,24.902,28.809,31.738,5.371,0
191349.196,34.180,25.879,23.438,40.039,54.199,0
191349.200,27.344,27.832,28.809,16.602,42.480,0
191349.204,26.367,28.809,28.320,19.531,8.789,0
191349.207,25.391,24.414,23.438,41.992,4.395,0
191349.211,23.438,19.043,31.738,44.434,67.383,0
191349.215,27.344,23.926,39.062,27.344,51.758,0
191349.219,25.879,25.391,39.062,6.348,-8.301,0
191349.223,19.531,27.832,39.551,14.648,29.297,0
191349.227,27.832,30.273,40.039,36.133,49.316,0
191349.231,36.621,33.203,40.527,23.926,2.930,0
191349.235,26.367,30.762,38.086,8.789,-58.105,0
191349.239,22.461,21.973,31.250,20.020,-5.859,0
191349.243,23.438,22.461,26.855,25.879,49.316,0
191349.247,29.785,31.250,20.996,28.809,57.617,0
191349.250,32.227,38.086,16.113,19.531,44.922,0
191349.254,22.949,36.133,26.855,11.719,26.367,0
191349.258,21.973,29.785,37.598,21.973,27.344,0
191349.262,21.484,28.809,33.691,27.832,61.035,0
191349.266,25.391,32.715,31.738,20.508,39.062,0
191349.270,23.438,35.645,36.133,19.531,-26.367,0
191349.274,13.184,29.785,34.180,24.902,-10.742,0
191349.278,20.996,21.973,28.809,32.715,-7.812,0
191349.282,27.832,24.902,26.855,23.438,3.906,0
191349.286,32.227,25.879,28.809,19.043,-2.930,0
191349.289,25.391,21.484,28.809,31.250,-19.531,0
191349.293,22.949,26.855,31.250,37.109,30.762,0
191349.297,25.879,33.203,35.645,30.762,83.984,0
191349.301,23.926,34.668,39.062,21.973,28.320,0
191349.305,24.414,31.738,41.504,24.902,28.809,0
191349.309,18.066,28.809,41.992,35.156,96.191,0
191349.313,22.949,24.902,38.574,36.133,104.004,0
191349.317,27.344,23.438,31.250,19.531,62.012,0
191349.321,22.949,26.367,31.738,15.625,19.043,0
191349.325,21.484,25.879,30.762,27.344,31.250,0
191349.329,22.461,20.020,26.855,39.062,74.219,0
191349.332,28.809,21.973,29.297,32.227,52.246,0
191349.336,32.715,27.832,35.645,18.555,-33.203,0
191349.340,22.949,29.785,41.016,22.461,-17.090,0
191349.344,26.855,30.273,43.945,44.922,82.031,0
191349.348,31.738,26.367,44.434,36.133,60.059,0
191349.352,21.484,23.438,37.109,15.625,28.320,0
191349.356,16.602,27.344,34.668,12.695,25.391,0
191349.360,19.043,29.297,35.156,27.832,29.785,0
191349.364,17.090,30.762,27.832,30.762,60.547,0
191349.368,20.508,33.691,25.879,9.766,-14.648,0
191349.372,18.555,31.738,27.344,5.859,-65.918,0
191349.375,22.949,27.832,30.762,27.832,-6.836,0
191349.379,40.527,26.367,34.180,54.688,-5.859,0
191349.383,26.367,31.250,28.320,23.926,-70.801,0
191349.387,9.766,31.738,27.344,-15.137,-38.086,0
191349.391,19.531,25.879,33.691,11.719,33.691,0
191349.395,25.879,26.855,26.855,31.250,58.105,0
191349.399,12.695,27.832,18.066,16.602,59.082,0
191349.403,-3.418,29.785,21.973,0.977,46.387,0
191349.407,-1.465,30.273,24.414,4.395,22.949,0
191349.411,18.066,33.203,34.180,23.438,51.758,0
191349.414,20.996,32.227,42.969,12.695,21.484,0
191349.418,16.602,30.762,43.457,4.395,-33.691,0
191349.422,13.672,31.738,39.062,17.090,-7.812,0
191349.426,15.625,28.320,32.715,26.367,17.578,0
191349.430,27.344,28.809,41.016,25.879,35.645,0
191349.434,22.949,35.645,42.969,14.160,1.465,0
191349.438,15.137,36.133,31.250,-0.488,-13.184,0
191349.442,15.625,32.227,27.344,10.742,37.109,0
191349.446,11.719,31.250,21.973,30.762,61.523,0
191349.450,8.789,31.250,25.391,22.461,41.016,0
191349.454,14.648,29.297,33.203,11.719,-12.695,0
191349.457,14.648,30.762,38.086,10.742,-23.438,0
191349.461,13.184,28.809,32.715,23.926,50.293,0
191349.465,13.184,27.344,22.461,26.855,47.852,0
191349.469,18.066,33.203,33.203,25.879,-19.043,0
191349.473,20.020,32.715,40.039,20.996,-8.789,0
191349.477,21.484,27.344,27.832,40.527,64.453,0
191349.481,22.949,28.320,20.996,39.551,71.289,0
191349.485,11.230,28.320,25.391,17.578,15.625,0
191349.489,-0.977,27.344,35.156,15.625,7.324,0
191349.493,2.930,27.344,42.969,23.438,41.504,0
191349.497,12.207,25.879,34.668,24.902,77.148,0
191349.500,8.301,29.297,29.297,14.648,8.301,0
191349.504,16.113,27.832,36.133,16.113,-18.555,0
191349.508,22.461,26.367,40.527,38.574,49.316,0
191349.512,23.926,28.320,39.551,50.781,82.031,0
191349.516,28.809,34.668,38.086,21.973,27.832,0
191349.520,22.461,31.738,25.879,9.277,-30.273,0
191349.524,20.996,21.973,18.555,23.926,-4.395,0
191349.528,23.926,21.973,34.180,32.227,30.273,0
191349.532,17.090,27.344,42.969,22.949,-17.090,0
191349.536,14.648,35.645,37.598,5.371,-53.711,0
191349.539,15.137,35.645,34.668,21.973,-31.250,0
191349.543,20.020,29.785,33.203,41.016,9.766,0
191349.547,24.902,33.691,32.227,35.645,25.879,0
191349.551,20.508,35.156,35.156,20.508,5.859,0
191349.555,20.996,33.691,30.762,23.438,23.438,0
191349.559,29.785,28.320,22.949,32.715,18.066,0
191349.563,24.902,29.785,19.043,24.902,-4.883,0
191349.567,22.461,38.086,20.996,14.648,18.066,0
191349.571,39.062,31.738,29.297,12.695,12.207,0
191349.575,26.367,27.344,32.227,9.277,-13.184,0
191349.579,18.066,27.344,28.809,28.320,33.691,0
191349.582,28.809,27.344,25.879,27.832,39.551,0
191349.586,19.531,31.250,34.668,14.648,-19.531,0
191349.590,17.578,33.203,41.992,23.926,22.461,0
191349.594,29.785,34.180,35.645,39.062,85.938,0
191349.598,21.484,34.180,29.297,29.785,87.402,0
191349.602,16.602,29.297,27.832,17.090,23.926,0
191349.606,20.996,22.461,31.738,21.484,-16.113,0
191349.610,15.137,23.926,38.086,30.762,53.711,0
191349.614,21.484,29.297,37.598,30.762,110.352,0
191349.618,15.625,26.855,31.738,26.855,41.992,0
191349.622,3.418,20.996,25.879,23.926,3.418,0
191349.625,8.789,28.320,29.297,21.484,71.289,0
191349.629,7.812,27.832,37.598,36.621,105.957,0
191349.633,14.648,23.926,40.527,30.273,67.871,0
191349.637,22.461,29.297,40.039,13.672,53.711,0
191349.641,16.602,27.832,32.715,19.531,89.844,0
191349.645,26.855,27.832,31.738,37.109,133.301,0
191349.649,37.109,33.203,28.320,32.227,118.652,0
191349.653,31.738,29.785,23.438,8.789,47.363,0
191349.657,21.484,24.414,32.715,17.578,23.438,0
191349.661,25.879,25.879,44.434,45.898,97.656,0
191349.664,30.762,26.367,41.992,38.574,61.035,0
191349.668,25.879,27.832,31.250,14.648,-20.508,0
191349.672,21.973,29.297,35.645,18.066,-13.672,0
191349.676,27.832,28.320,32.715,35.156,-1.953,0
191349.680,22.461,32.227,25.879,23.926,41.992,0
191349.684,9.277,40.527,31.250,20.020,32.715,0
191349.688,11.230,37.109,32.227,34.180,-16.113,0
191349.692,16.113,23.438,30.273,25.391,5.859,0
191349.696,21.973,24.414,31.738,23.926,43.457,0
191349.700,24.902,29.785,34.180,23.926,50.781,0
191349.704,20.996,34.180,29.785,13.184,20.996,0
191349.707,19.043,32.227,29.297,20.996,40.527,0
191349.711,20.996,31.250,32.715,27.832,61.523,1
191349.715,23.926,38.574,29.785,10.742,43.945,0
191349.719,30.273,39.551,25.391,7.812,33.203,0
191349.723,17.578,35.156,25.391,13.672,11.230,0
191349.727,21.484,29.297,32.715,33.203,33.691,0
191349.731,32.227,29.785,26.367,34.180,76.172,0
191349.735,23.926,38.574,18.555,13.672,41.504,0
191349.739,22.949,36.621,28.320,19.531,31.250,0
191349.743,24.902,25.879,35.645,32.715,68.359,0
191349.747,26.855,29.297,36.621,33.691,64.941,0
191349.750,24.902,33.691,34.180,23.438,7.812,0
191349.754,26.367,23.926,31.738,24.414,-70.312,0
191349.758,32.227,24.414,37.109,30.273,-62.012,0
191349.762,35.645,29.297,40.527,38.086,20.020,0
191349.766,28.809,27.832,38.086,26.855,57.617,0
191349.770,26.855,26.855,37.109,12.207,36.621,0
191349.774,18.555,25.879,31.738,19.043,29.297,0
191349.778,11.230,24.902,26.367,34.668,81.543,0
191349.782,22.461,27.832,24.902,26.367,68.848,0
191349.786,17.090,28.320,28.320,13.672,5.859,0
191349.789,8.789,29.785,35.156,18.555,14.160,0
191349.793,24.902,29.297,33.691,38.086,20.020,0
191349.797,27.832,23.926,22.949,31.738,38.086,0
191349.801,25.879,28.809,20.020,9.766,25.391,0
191349.805,20.508,30.762,31.250,13.672,8.301,0
191349.809,20.508,25.391,35.645,24.902,66.895,0
191349.813,29.297,27.344,29.297,25.391,92.285,0
191349.817,21.484,34.180,25.879,9.766,54.688,0
191349.821,8.301,39.062,29.297,-4.883,20.508,0
191349.825,14.160,35.156,28.809,9.766,54.688,0
191349.829,18.555,31.250,32.227,31.738,108.887,0
191349.832,17.578,31.250,30.273,25.879,62.988,0
191349.836,18.066,31.738,28.320,14.160,-21.973,0
191349.840,23.926,30.273,28.809,22.461,-10.742,0
191349.844,39.062,27.344,15.625,32.715,16.113,0
191349.848,37.109,26.855,20.020,16.113,21.484,0
191349.852,15.625,28.320,38.574,11.719,-2.930,0
191349.856,10.742,29.297,42.969,21.973,2.441,0
191349.860,19.043,30.762,38.574,29.297,91.797,0
191349.864,22.949,32.715,27.344,21.973,69.336,0
191349.868,19.043,34.180,14.160,14.648,14.160,0
191349.872,16.113,33.203,17.578,15.625,32.227,0
191349.875,20.508,33.691,40.039,22.461,-2.441,0
191349.879,28.320,29.785,44.922,31.738,-7.812,0
191349.883,28.809,24.902,44.434,22.461,-2.930,0
191349.887,14.160,22.949,47.363,16.602,-17.578,0
191349.891,15.137,23.926,42.969,23.926,-15.137,0
191349.895,25.391,25.391,28.809,33.691,3.906,0
191349.899,22.949,28.320,20.996,32.227,21.484,0
191349.903,19.531,32.227,24.902,20.508,10.742,0
191349.907,16.602,35.645,29.785,15.137,36.621,0
191349.911,18.066,33.691,42.480,18.555,87.891,0
191349.914,18.555,31.738,47.363,13.672,94.238,0
191349.918,22.461,30.273,43.457,14.160,12.207,0
191349.922,19.531,29.785,42.480,17.578,-29.297,0
191349.926,23.926,29.297,39.062,30.762,37.109,0
191349.930,35.156,25.879,29.297,38.574,53.223,0
191349.934,28.320,27.344,24.414,20.996,-33.203,0
191349.938,15.625,32.227,22.949,11.230,-58.594,0
191349.942,15.625,34.668,24.902,31.738,47.852,0
191349.946,32.227,29.785,29.297,49.316,110.352,0
191349.950,27.832,32.227,31.250,35.645,39.062,0
191349.954,22.461,37.109,37.598,25.879,20.996,0
191349.957,18.066,31.738,34.668,27.832,65.430,0
191349.961,25.879,24.414,33.691,33.691,83.496,0
191349.965,36.621,21.973,35.156,26.367,64.453,0
191349.969,28.809,24.902,32.227,20.508,14.648,0
191349.973,22.461,27.344,33.691,22.949,20.996,0
191349.977,28.809,24.902,23.438,36.133,93.262,0
191349.981,24.414,25.879,21.973,30.273,109.863,0
191349.985,16.113,29.297,33.691,10.254,75.195,0
191349.989,18.066,37.109,40.039,16.602,73.242,0
191349.993,19.043,31.738,33.203,19.531,116.699,0
191349.997,23.438,16.602,25.391,19.531,122.070,0
191350.000,21.973,28.320,30.762,14.160,43.945,0
191350.004,20.020,37.598,40.039,13.672,10.742,0
191350.008,15.137,26.855,47.363,28.320,24.414,0
191350.012,17.578,20.996,46.387,40.039,36.133,0
191350.016,22.461,22.949,29.785,20.996,32.227,0
191350.020,15.625,31.250,24.902,10.254,8.301,0
191350.024,24.414,31.250,35.645,20.508,28.320,0
191350.028,36.621,29.297,29.785,22.949,87.891,0
191350.032,33.203,38.086,25.391,16.113,68.848,0
191350.036,32.227,42.969,34.180,9.766,20.996,0
191350.039,34.668,36.621,35.645,13.184,48.828,0
191350.043,29.297,31.738,34.180,30.762,92.285,0
191350.047,31.250,35.645,38.086,42.480,62.500,0
191350.051,32.227,37.109,34.180,26.855,25.391,0
191350.055,22.949,31.738,26.855,20.996,-23.926,0
191350.059,25.391,29.785,27.832,26.855,-12.207,0
191350.063,31.738,28.320,22.949,29.297,76.660,0
191350.067,27.832,29.785,25.879,22.461,59.082,0
191350.071,27.832,32.227,33.691,19.043,16.113,0
191350.075,28.320,29.785,32.227,31.250,53.711,0
191350.079,28.320,28.809,27.832,39.551,103.516,0
191350.082,17.578,25.391,22.461,20.996,10.742,0
191350.086,21.973,25.879,22.949,16.602,-75.684,0
191350.090,32.227,28.809,21.973,27.832,0.488,0
191350.094,23.926,24.902,26.367,33.203,101.562,0
191350.098,18.066,27.344,31.250,27.344,90.820,0
191350.102,18.066,32.715,30.762,6.836,8.301,0
191350.106,19.531,31.738,31.250,6.348,-21.484,0
191350.110,27.832,30.762,34.668,37.598,59.082,0
191350.114,26.855,30.273,37.109,35.645,92.285,0
191350.118,17.090,28.809,31.250,6.836,9.277,0
191350.122,18.555,30.273,26.855,-2.441,45.410,0
191350.125,26.855,31.250,23.926,20.508,130.859,0
191350.129,29.297,26.367,23.926,35.156,104.004,0
191350.133,20.508,16.113,35.156,19.043,56.152,0
191350.137,16.113,20.508,30.762,16.602,55.664,0
191350.141,10.742,24.902,24.414,29.297,122.559,0
191350.145,13.672,19.531,38.086,37.598,127.441,0
191350.149,18.555,27.832,39.551,19.531,67.383,0
191350.153,17.090,35.156,39.062,10.254,64.453,0
191350.157,20.508,30.762,33.691,27.344,59.570,0
191350.161,28.320,31.738,32.715,42.969,72.266,0
191350.164,23.438,33.691,41.504,25.391,84.473,0
191350.168,18.066,35.156,40.527,2.930,42.480,0
191350.172,14.160,30.273,37.598,4.395,22.461,0
191350.176,17.090,19.531,37.598,18.555,77.637,0
191350.180,28.320,25.391,32.227,15.625,103.027,0
191350.184,34.668,33.203,25.879,6.348,51.758,0
191350.188,24.902,31.738,26.855,7.812,39.551,0
191350.192,16.602,32.227,24.902,23.926,38.086,0
191350.196,28.320,38.086,27.832,31.738,41.016,0
191350.200,33.691,39.062,35.156,24.414,18.555,0
191350.204,26.855,38.086,34.180,29.785,-28.809,0
191350.207,24.414,34.668,31.738,22.461,4.395,0
191350.211,20.508,29.785,31.738,23.438,60.059,0
191350.215,19.531,33.691,32.715,23.438,55.664,0
191350.219,20.508,33.203,33.691,5.859,3.418,0
191350.223,13.672,33.691,34.180,12.207,-42.969,0
191350.227,18.066,32.227,35.645,39.062,-40.527,0
191350.231,29.297,26.855,30.273,31.250,-9.277,0
191350.235,26.855,24.414,22.949,16.113,-21.973,0
191350.239,19.531,15.137,25.879,17.090,-61.035,0
191350.243,23.926,19.043,27.344,35.156,-28.809,0
191350.247,29.297,30.273,25.391,47.363,43.945,0
191350.250,29.785,36.621,34.180,25.879,0.488,0
191350.254,24.902,38.086,37.598,16.602,-20.996,0
191350.258,16.113,28.809,35.645,29.297,23.926,0
191350.262,21.973,20.020,33.203,29.297,62.988,0
191350.266,25.879,23.438,17.578,7.812,51.270,0
191350.270,29.785,25.879,15.625,24.414,4.395,0
191350.274,29.785,25.879,35.156,42.969,60.059,0
191350.278,29.297,20.020,37.598,31.738,132.324,0
191350.282,20.508,12.207,32.227,16.113,112.305,0
191350.286,14.160,25.391,41.504,6.836,64.453,0
191350.289,7.812,29.297,49.805,14.160,89.844,0
191350.293,8.301,16.113,47.363,28.320,101.562,0
191350.297,20.020,21.484,48.828,28.320,37.109,0
191350.301,19.531,37.109,47.363,25.879,-7.812,0
191350.305,24.414,41.504,33.691,37.598,11.230,0
191350.309,34.180,31.738,34.180,48.340,28.320,0
191350.313,32.715,24.414,43.945,35.645,25.879,0
191350.317,17.578,26.367,34.668,10.254,14.648,0
191350.321,12.207,29.785,15.137,13.184,-13.184,0
191350.325,14.648,24.902,27.344,21.973,-26.367,0
191350.329,13.672,18.066,53.223,29.785,1.953,0
191350.332,10.742,21.973,49.805,18.555,10.742,0
191350.336,8.789,28.809,39.062,9.766,-4.395,0
191350.340,10.742,27.832,39.551,19.043,-18.066,0
191350.344,23.926,30.273,34.668,33.691,26.367,0
191350.348,29.785,36.621,23.438,35.156,49.805,0
191350.352,27.832,33.691,20.996,24.902,7.324,0
191350.356,28.809,32.227,14.160,17.090,-36.621,0
191350.360,28.809,30.273,9.277,26.855,19.531,0
191350.364,26.855,31.738,21.484,33.203,84.473,0
191350.368,25.391,36.133,35.156,18.066,29.785,0
191350.372,17.578,39.551,33.203,17.578,-9.277,0
191350.375,18.555,35.645,26.855,28.320,12.695,0
191350.379,21.484,29.297,31.250,33.203,32.715,0
191350.383,22.461,35.156,32.227,17.578,7.324,0
191350.387,26.855,39.062,26.855,6.836,-0.977,0
191350.391,15.625,33.203,28.809,28.809,13.184,0
191350.395,18.066,26.367,26.855,49.805,51.270,0
191350.399,26.855,30.273,22.461,28.320,18.555,1
191350.403,26.855,35.645,31.250,12.695,-49.316,0
191350.407,23.926,33.691,30.273,30.762,-27.344,0
191350.411,23.438,27.344,28.809,38.574,8.301,0
191350.414,20.020,29.297,36.133,26.367,2.441,0
191350.418,13.672,35.156,34.180,12.695,-6.348,0
191350.422,14.160,33.203,33.203,5.859,-7.812,0
191350.426,7.324,29.297,35.156,10.254,48.828,0
191350.430,0.977,22.461,37.109,9.277,59.082,0
191350.434,9.277,24.902,41.016,8.301,8.789,0
191350.438,4.395,30.762,36.621,13.184,-18.066,0
191350.442,7.812,31.250,30.273,20.508,14.160,0
191350.446,25.879,29.785,28.320,31.250,48.340,0
191350.450,24.902,31.250,23.926,18.066,0.488,0
191350.454,25.879,30.273,20.508,9.766,-17.090,0
191350.457,28.320,24.414,21.484,22.461,0.488,0
191350.461,27.832,27.344,22.461,28.320,23.438,0
191350.465,23.438,33.691,24.902,22.461,30.273,0
191350.469,24.902,38.086,27.344,20.020,-13.672,0
191350.473,22.461,42.480,27.344,30.762,-24.414,0
191350.477,24.902,44.434,30.273,46.875,39.062,0
191350.481,35.156,40.527,32.715,52.734,66.406,0
191350.485,30.273,35.156,32.715,32.715,8.789,0
191350.489,23.926,30.762,31.250,15.137,-19.043,0
191350.493,19.043,22.461,32.227,28.809,14.648,0
191350.497,19.531,25.391,32.227,36.133,30.762,0
191350.500,22.949,33.203,36.133,22.949,37.598,0
191350.504,15.625,33.203,42.969,11.719,9.766,0
191350.508,18.555,32.227,34.180,20.508,-36.133,0
191350.512,33.203,32.227,21.973,40.039,35.645,0
191350.516,21.484,29.297,19.043,26.855,70.312,0
191350.520,17.578,32.227,26.367,11.719,6.348,0
191350.524,26.855,34.668,30.762,31.250,18.066,0
191350.528,25.391,33.691,33.203,41.992,83.984,0
191350.532,22.461,34.180,41.504,27.832,76.172,0
191350.536,17.578,31.250,40.527,15.137,21.973,0
191350.539,18.066,33.691,41.016,13.184,-12.695,0
191350.543,28.809,32.227,31.250,28.809,27.832,0
191350.547,32.715,19.531,16.602,33.203,98.633,0
191350.551,23.438,20.508,20.020,8.301,69.336,0
191350.555,12.695,26.367,34.180,4.395,41.504,0
191350.559,19.043,25.391,40.039,36.621,79.102,0
191350.563,24.902,24.414,39.551,42.969,82.520,0
191350.567,17.578,27.832,42.969,31.738,28.809,0
191350.571,20.996,30.762,48.340,32.227,20.508,0
191350.575,21.484,28.320,44.922,35.156,41.992,0
191350.579,23.438,27.344,28.809,35.645,52.246,0
191350.582,27.344,29.297,13.184,24.414,12.695,0
191350.586,22.461,25.391,26.855,17.578,-42.480,0
191350.590,14.160,24.414,43.945,24.902,-36.621,0
191350.594,20.996,29.297,40.039,34.668,-5.859,0
191350.598,31.250,34.180,33.691,37.598,3.418,0
191350.602,31.250,34.668,32.227,32.715,-10.742,0
191350.606,25.391,30.762,36.621,26.855,-17.090,0
191350.610,18.066,33.203,37.109,38.574,11.719,0
191350.614,25.879,35.156,26.855,50.781,37.109,0
191350.618,31.738,36.621,27.344,36.133,31.738,0
191350.622,29.297,34.668,39.062,19.043,14.160,0
191350.625,26.855,26.855,33.691,28.320,41.016,0
191350.629,30.762,26.855,30.273,37.109,76.660,0
191350.633,33.203,26.367,33.203,18.066,38.086,0
191350.637,25.391,25.879,35.156,9.766,-2.441,0
191350.641,20.996,30.273,41.992,24.414,-5.371,0
191350.645,36.133,34.668,42.480,35.645,30.273,0
191350.649,33.203,33.691,39.551,33.691,36.133,0
191350.653,19.043,27.832,41.016,22.949,18.555,0
191350.657,16.113,24.902,34.180,39.062,23.926,0
191350.661,14.648,18.555,27.344,49.805,45.898,0
191350.664,18.555,23.438,34.180,31.250,43.945,0
191350.668,24.414,32.715,29.785,17.578,19.531,0
191350.672,19.531,29.785,21.484,19.531,18.066,0
191350.676,13.184,26.367,25.391,31.250,41.016,0
191350.680,26.367,24.902,37.109,35.156,66.406,0
191350.684,33.691,31.250,41.016,19.043,2.441,0
191350.688,27.832,33.691,29.297,16.113,-50.293,0
191350.692,27.832,27.832,21.484,33.691,62.012,0
191350.696,33.691,26.855,30.762,46.875,145.996,0
191350.700,37.598,31.250,32.715,33.203,50.781,0
191350.704,25.879,32.715,29.785,19.531,1.953,0
191350.707,13.184,33.691,33.691,31.250,48.828,0
191350.711,23.438,27.832,34.180,46.387,86.426,0
191350.715,32.715,24.902,30.762,32.715,80.566,0
191350.719,28.809,30.762,31.738,13.672,33.203,0
191350.723,29.785,31.250,29.785,16.602,15.137,0
191350.727,34.180,29.785,22.461,42.480,77.637,0
191350.731,30.762,32.227,24.902,40.039,55.176,0
191350.735,22.949,35.645,31.738,8.789,-11.719,0
191350.739,27.344,32.227,34.180,17.578,26.367,0
191350.743,35.645,23.438,31.250,40.527,68.848,0
191350.747,29.785,27.344,32.715,37.598,63.477,0
191350.750,19.043,33.203,35.156,22.949,5.859,0
191350.754,22.461,27.832,32.715,20.020,-22.461,0
191350.758,27.344,29.297,31.250,25.879,3.906,0
191350.762,25.391,33.691,29.297,33.691,62.988,0
191350.766,24.902,30.273,29.297,22.461,50.293,0
191350.770,29.785,28.320,28.809,20.020,-10.254,0
191350.774,26.367,26.367,33.203,28.809,-1.953,0
191350.778,25.391,20.508,37.598,19.043,9.277,0
191350.782,24.902,26.855,36.133,12.207,45.898,0
191350.786,20.508,29.297,31.738,22.949,57.617,0
191350.789,24.902,20.996,27.832,28.809,5.859,0
191350.793,29.297,14.648,25.391,33.691,30.762,0
191350.797,24.414,19.531,22.949,26.367,66.895,0
191350.801,28.809,25.879,31.738,14.648,32.715,0
191350.805,22.949,28.809,32.227,12.207,-26.855,0
191350.809,12.695,27.344,33.691,21.973,-0.488,0
191350.813,24.902,25.879,37.598,31.250,49.316,0
191350.817,22.949,31.738,31.250,20.020,2.441,0
191350.821,16.113,33.203,28.809,13.672,-51.758,0
191350.825,20.020,27.832,34.668,28.809,-12.207,0
191350.829,24.414,28.809,34.668,44.434,49.805,0
191350.832,28.320,35.156,32.227,42.969,58.594,0
191350.836,29.785,30.762,29.297,21.973,-0.977,0
191350.840,23.926,27.832,21.973,8.301,12.207,0
191350.844,23.926,27.344,20.508,31.250,70.312,0
191350.848,31.250,29.785,20.020,31.738,35.645,0
191350.852,29.297,35.156,25.391,13.184,47.852,0
191350.856,20.508,36.133,36.133,17.090,51.270,0
191350.860,22.949,33.203,30.762,31.738,51.758,0
191350.864,20.020,35.156,21.484,27.832,44.434,0
191350.868,20.508,32.227,18.555,6.348,1.465,0
191350.872,15.137,29.785,19.531,14.160,-0.488,0
191350.875,10.254,35.156,30.762,31.738,45.898,0
191350.879,30.273,34.180,37.109,29.297,66.406,0
191350.883,30.273,34.180,29.297,13.184,1.953,0
191350.887,16.113,33.203,26.367,10.254,-30.273,0
191350.891,22.461,27.832,32.227,30.273,8.301,0
191350.895,18.555,28.320,34.668,34.180,44.434,0
191350.899,2.930,32.715,23.926,-2.930,32.227,0
191350.903,12.695,28.320,22.461,-14.160,10.742,0
191350.907,12.695,26.855,30.273,5.371,-1.953,0
191350.911,13.184,25.879,22.461,18.555,4.883,0
191350.914,16.602,18.555,20.020,19.043,19.043,0
191350.918,4.883,19.043,30.273,10.742,-9.766,0
191350.922,3.418,23.926,32.227,10.254,-33.691,0
191350.926,12.695,26.367,20.508,29.785,-4.395,0
191350.930,22.461,31.738,10.742,35.645,9.766,1
191350.934,19.043,29.297,23.438,20.996,2.930,0
191350.938,12.695,22.461,30.762,14.160,5.859,0
191350.942,10.254,24.902,29.297,29.785,36.133,0
191350.946,20.996,21.484,36.133,41.992,73.242,0
191350.950,28.809,22.461,40.039,28.809,55.664,0
191350.954,23.438,27.832,40.527,19.043,10.742,0
191350.957,17.090,23.438,36.621,27.344,41.504,0
191350.961,17.090,18.066,31.738,40.039,95.703,0
191350.965,20.508,19.531,36.133,24.414,75.684,0
191350.969,20.996,20.996,41.504,2.930,29.297,0
191350.973,16.602,28.320,39.062,7.324,22.949,0
191350.977,20.020,31.250,31.738,28.809,51.270,0
191350.981,23.926,27.832,21.973,28.809,70.801,0
191350.985,13.184,35.645,22.461,11.719,35.645,0
191350.989,5.859,41.992,20.996,9.766,32.227,0
191350.993,13.184,32.715,18.066,30.762,74.219,0
191350.997,19.043,28.320,25.391,42.480,70.312,0
191351.000,14.648,34.668,31.250,21.484,42.480,0
191351.004,9.277,27.344,41.016,4.395,31.738,0
191351.008,9.277,19.531,39.062,13.184,8.301,0
191351.012,24.414,17.090,20.508,31.250,41.016,0
191351.016,29.785,13.672,17.578,15.137,-16.602,0
191351.020,20.508,26.855,20.996,-1.465,-74.707,0
191351.024,4.395,33.691,12.207,5.371,2.441,0
191351.028,1.953,27.344,22.949,13.184,81.055,0
191351.032,8.789,28.809,50.293,10.742,80.078,0
191351.036,8.301,32.227,46.875,3.906,35.645,0
191351.039,12.207,25.879,25.391,12.207,54.688,0
191351.043,27.344,30.762,42.969,38.086,47.363,0
191351.047,23.926,34.180,44.922,33.691,37.598,0
191351.051,8.301,22.461,29.785,5.371,50.293,0
191351.055,14.648,16.602,36.621,8.789,57.129,0
191351.059,22.461,20.996,44.434,23.926,83.008,0
191351.063,17.578,25.391,51.270,18.555,66.406,0
191351.067,19.531,31.250,49.316,7.812,18.066,0
191351.071,24.414,33.691,35.156,16.113,25.391,0
191351.075,27.344,26.855,29.297,41.504,23.926,0
191351.079,35.156,28.320,32.227,54.199,61.035,0
191351.082,28.320,38.574,31.250,28.809,75.684,0
191351.086,13.184,37.598,28.320,9.277,6.836,0
191351.090,19.531,29.785,29.297,16.113,24.902,0
191351.094,28.320,26.367,33.203,31.250,40.527,0
191351.098,26.855,26.367,30.273,31.250,46.875,0
191351.102,28.320,34.180,20.996,18.066,2.930,0
191351.106,29.297,42.969,28.809,8.789,-44.922,0
191351.110,28.809,44.922,41.504,31.250,15.625,0
191351.114,24.414,40.527,33.203,46.387,51.270,0
191351.118,24.414,41.016,30.273,25.391,8.789,0
191351.122,27.832,35.156,34.668,25.879,-15.137,0
191351.125,20.020,27.344,32.227,45.898,-38.574,0
191351.129,18.066,30.273,30.762,46.387,-25.879,0
191351.133,20.508,34.668,27.832,21.973,-17.090,0
191351.137,13.672,35.156,30.273,15.137,-68.359,0
191351.141,15.137,31.250,37.598,28.320,-50.781,0
191351.145,22.461,34.668,45.410,43.457,4.395,0
191351.149,20.020,29.785,48.340,31.250,-12.695,0
191351.153,17.578,27.344,47.363,19.043,-13.184,0
191351.157,22.949,36.621,44.922,26.855,1.465,0
191351.161,28.809,34.180,28.809,34.668,35.645,0
191351.164,24.902,30.762,10.742,35.156,37.109,0
191351.168,15.137,32.227,14.160,20.508,-33.203,0
191351.172,15.625,27.832,35.156,22.461,-23.438,0
191351.176,17.090,30.273,42.969,37.109,17.578,0
191351.180,16.602,28.320,36.621,35.645,15.137,0
191351.184,17.578,27.344,36.133,26.367,-32.227,0
191351.188,18.066,31.250,41.504,32.227,-45.898,0
191351.192,20.996,24.902,41.504,42.480,-7.324,0
191351.196,31.738,25.879,37.109,50.781,36.621,0
191351.200,31.738,35.156,30.273,29.297,-39.062,0
191351.204,22.461,32.715,22.461,16.113,-82.520,0
191351.207,20.020,27.832,18.066,28.320,-47.852,0
191351.211,25.879,25.391,20.508,38.574,-16.602,0
191351.215,22.949,22.461,24.902,28.809,-29.785,0
191351.219,28.320,27.344,29.785,20.996,-69.824,0
191351.223,37.598,28.320,34.180,32.227,-56.152,0
191351.227,32.227,25.391,33.203,46.387,-3.418,0
191351.231,31.738,25.391,22.461,48.828,38.086,0
191351.235,31.250,28.320,11.719,29.785,33.203,0
191351.239,23.926,27.832,12.207,19.531,18.066,0
191351.243,29.297,19.043,23.438,34.668,19.531,0
191351.247,34.180,22.949,32.227,40.039,21.484,0
191351.250,35.156,29.297,33.691,22.949,-11.230,0
191351.254,28.809,29.297,33.691,15.625,-39.551,0
191351.258,20.020,31.738,33.691,19.531,-40.039,0
191351.262,25.391,30.273,32.715,28.320,24.902,0
191351.266,24.902,27.832,22.949,27.344,24.902,0
191351.270,8.301,32.227,13.672,17.090,14.648,0
191351.274,17.090,31.738,13.184,16.602,24.414,0
191351.278,30.762,24.414,24.414,34.180,81.543,0
191351.282,27.832,23.438,36.621,30.273,107.910,0
191351.286,19.043,25.391,37.598,9.277,41.504,0
191351.289,19.531,28.320,38.086,16.113,53.711,0
191351.293,26.855,29.297,37.109,30.273,111.816,0
191351.297,27.344,34.668,22.461,32.715,118.652,0
191351.301,27.344,39.551,21.973,19.043,42.969,0
191351.305,20.996,28.320,36.621,10.254,25.391,0
191351.309,21.973,26.855,38.086,35.645,127.441,0
191351.313,25.391,34.180,31.250,47.363,130.859,0
191351.317,29.297,27.832,30.273,24.902,43.945,0
191351.321,24.902,25.391,40.039,17.578,29.297,0
191351.325,19.531,25.391,35.156,29.297,59.570,0
191351.329,31.738,29.297,18.555,44.434,104.980,0
191351.332,37.109,33.203,20.020,37.109,71.777,0
191351.336,25.391,32.715,22.461,30.762,-18.555,0
191351.340,27.832,27.832,30.762,30.762,0.977,0
191351.344,36.621,21.973,45.898,43.457,56.641,0
191351.348,31.738,24.414,43.945,46.387,55.664,0
191351.352,28.809,30.273,29.785,21.973,38.086,0
191351.356,22.949,31.738,31.250,15.625,16.113,0
191351.360,25.879,27.832,31.738,38.574,62.012,0
191351.364,33.203,25.879,26.855,46.387,109.375,0
191351.368,32.227,30.762,27.344,31.738,68.848,0
191351.372,28.809,28.320,31.250,20.508,25.391,0
191351.375,20.508,24.902,29.297,21.484,52.734,0
191351.379,28.320,23.926,27.344,26.367,92.285,0
191351.383,30.273,24.902,32.227,14.648,57.129,0
191351.387,27.344,29.785,37.598,16.113,53.711,0
191351.391,27.344,32.227,40.039,29.785,67.871,0
191351.395,22.949,34.668,40.527,30.762,88.867,0
191351.399,14.648,31.250,37.109,18.066,111.328,0
191351.403,19.043,24.414,35.645,12.207,62.500,0
191351.407,26.855,26.367,31.250,23.926,40.527,0
191351.411,27.832,25.391,22.949,30.762,67.383,0
191351.414,27.344,23.438,9.766,23.926,85.938,0
191351.418,19.043,28.320,11.719,6.836,60.059,0
191351.422,15.137,30.273,30.762,10.254,20.996,0
191351.426,10.742,33.691,36.133,27.344,60.547,0
191351.430,11.230,31.738,36.621,23.926,84.961,0
191351.434,20.020,25.879,30.273,5.859,6.348,0
191351.438,17.090,25.879,30.273,1.953,-39.551,0
191351.442,17.090,26.367,39.062,18.555,18.555,0
191351.446,26.367,29.297,38.086,30.273,49.316,0
191351.450,29.297,32.227,31.738,19.531,-5.859,0
191351.454,26.855,33.691,33.691,10.742,-27.832,0
191351.457,25.879,35.645,35.645,27.344,48.340,0
191351.461,24.414,27.832,27.832,47.363,124.512,0
191351.465,18.066,24.414,35.156,32.227,77.637,0
191351.469,13.672,32.715,46.387,13.672,5.859,0
191351.473,16.602,30.762,37.598,21.484,15.137,0
191351.477,23.926,24.414,26.367,38.574,47.363,0
191351.481,27.344,28.809,26.367,27.344,33.691,0
191351.485,25.391,35.156,32.715,7.812,-9.766,0
191351.489,24.902,39.062,40.527,21.973,-14.648,0
191351.493,17.578,38.086,44.922,33.691,20.508,0
191351.497,29.297,35.645,39.551,35.156,57.129,0
191351.500,37.109,38.086,26.855,28.320,1.953,0
191351.504,17.090,37.109,29.785,13.184,-31.250,0
191351.508,13.184,30.273,41.016,20.508,16.113,0
191351.512,25.391,25.879,36.621,40.527,31.738,0
191351.516,25.879,27.344,23.438,24.414,43.457,0
191351.520,28.809,33.691,27.832,16.113,19.531,0
191351.524,31.250,41.016,37.109,32.715,-22.461,0
191351.528,22.949,36.621,34.180,37.109,-60.059,0
191351.532,18.555,33.691,36.621,29.785,-72.266,0
191351.536,11.230,33.691,35.156,24.414,-69.336,0
191351.539,11.719,29.785,33.691,20.020,-30.762,0
191351.543,17.090,31.738,34.180,25.391,47.852,0
191351.547,14.648,31.738,28.809,26.367,64.941,0
191351.551,9.277,31.250,28.809,14.160,-6.836,0
191351.555,7.324,42.480,27.344,11.719,-27.832,0
191351.559,6.836,31.738,28.320,21.484,13.672,0
191351.563,4.883,12.207,38.574,28.320,43.457,0
191351.567,4.883,24.414,45.898,8.301,13.672,0
191351.571,6.348,33.691,39.062,1.953,-0.488,0
191351.575,6.836,28.809,27.832,22.461,53.711,0
191351.579,11.719,27.344,28.809,36.133,75.195,0
191351.582,11.230,30.762,33.203,26.855,39.551,0
191351.586,17.578,31.250,34.180,14.160,-33.691,0
191351.590,23.926,31.738,35.645,23.438,-29.297,0
191351.594,31.738,30.762,31.738,39.062,89.844,0
191351.598,37.109,37.109,19.531,27.832,76.660,0
191351.602,17.578,38.086,15.137,3.906,0.000,0
191351.606,4.395,29.785,26.367,1.953,24.902,0
191351.610,14.648,30.762,36.133,30.762,96.191,0
191351.614,20.020,30.762,44.434,36.621,97.656,2
191351.618,22.949,34.668,47.852,18.066,40.039,0
191351.622,25.879,37.109,39.062,15.625,6.348,0
191351.625,26.855,32.227,31.250,37.109,37.598,0
191351.629,23.438,31.250,29.297,44.922,88.379,0
191351.633,20.020,33.203,24.902,22.949,60.547,0
191351.637,18.066,33.203,24.414,15.137,9.277,0
191351.641,14.160,30.762,25.879,25.879,49.805,0
191351.645,19.531,30.273,25.391,31.738,95.703,0
191351.649,19.531,35.645,32.227,17.090,81.543,0
191351.653,22.461,37.598,39.551,11.230,22.949,0
191351.657,22.461,33.691,41.504,19.531,-6.836,0
191351.661,20.508,29.785,36.133,28.320,62.988,0
191351.664,24.414,28.809,29.785,25.391,26.855,0
191351.668,19.043,33.203,25.879,16.113,-74.219,0
191351.672,12.207,37.598,30.762,17.578,-52.246,0
191351.676,22.461,35.645,31.738,24.414,-23.926,0
191351.680,26.367,36.133,29.785,23.438,9.766,0
191351.684,21.973,35.645,31.250,13.672,14.160,0
191351.688,20.020,25.391,25.391,19.043,-29.785,0
191351.692,22.461,23.926,14.160,25.391,-10.742,0
191351.696,22.461,26.367,17.090,23.438,31.250,0
191351.700,16.113,29.297,26.855,21.973,24.902,0
191351.704,18.555,31.250,26.855,12.695,5.859,0
191351.707,9.766,28.320,31.250,19.043,30.273,0
191351.711,11.719,27.832,29.785,37.109,41.992,0
191351.715,20.508,25.391,21.484,32.715,37.109,0
191351.719,23.926,24.902,30.273,20.020,12.695,0
191351.723,24.414,28.809,38.086,15.137,-14.160,0
191351.727,23.438,29.297,36.133,37.109,30.273,0
191351.731,23.438,27.344,28.809,41.016,42.969,0
191351.735,16.602,29.297,23.926,11.230,-4.395,0
191351.739,20.020,25.391,33.691,9.766,-29.785,0
191351.743,20.508,27.344,40.527,26.855,25.879,0
191351.747,12.695,29.785,34.668,28.320,88.379,0
191351.750,13.184,28.809,32.227,19.531,57.617,0
191351.754,15.625,29.785,30.273,19.043,41.504,0
191351.758,20.508,27.832,24.414,30.273,60.059,0
191351.762,20.508,25.391,23.438,32.227,108.398,0
191351.766,21.484,24.414,28.320,14.160,51.270,0
191351.770,20.996,32.227,26.367,3.418,-52.734,0
191351.774,10.742,31.250,19.043,10.742,3.906,0
191351.778,13.672,21.484,25.879,28.320,14.160,0
191351.782,19.043,20.996,37.109,26.367,7.324,0
191351.786,15.625,24.414,36.621,5.859,17.090,0
191351.789,14.160,25.879,35.156,7.324,24.414,0
191351.793,18.555,28.809,35.645,33.691,103.027,0
191351.797,20.508,32.715,29.297,45.898,124.512,0
191351.801,27.832,35.156,28.809,28.809,67.383,0
191351.805,22.949,36.133,31.250,19.043,34.668,0
191351.809,19.043,25.391,31.250,26.367,45.898,0
191351.813,24.414,18.555,27.832,27.832,49.805,0
191351.817,22.949,25.879,21.973,20.996,42.969,0
191351.821,25.391,28.320,24.902,20.508,39.062,0
191351.825,17.578,24.902,32.715,22.461,51.270,0
191351.829,12.695,23.438,34.668,32.227,115.723,0
191351.832,15.625,22.461,34.668,27.832,44.922,0
191351.836,21.484,25.879,34.668,12.207,-29.297,0
191351.840,20.020,31.738,26.855,19.531,6.348,0
191351.844,19.043,33.691,12.695,37.598,54.199,0
191351.848,22.949,32.715,5.859,30.273,39.062,0
191351.852,19.043,28.320,14.648,8.789,-4.883,0
191351.856,21.484,24.414,30.273,13.672,-16.113,0
191351.860,20.020,21.973,44.434,27.832,32.715,0
191351.864,18.066,31.250,50.293,26.367,99.609,0
191351.868,22.461,35.156,45.898,17.578,22.461,0
191351.872,26.367,29.785,44.434,19.531,-27.832,0
191351.875,28.809,30.273,43.457,29.297,38.086,0
191351.879,40.039,28.809,31.250,41.992,65.430,0
191351.883,41.016,32.715,21.973,26.855,37.598,0
191351.887,24.902,35.645,22.461,14.160,0.000,0
191351.891,21.484,34.180,21.973,25.879,17.090,0
191351.895,27.344,32.227,23.438,39.062,92.285,0
191351.899,24.902,27.344,36.621,27.832,70.801,0
191351.903,19.043,25.391,41.016,9.766,4.883,0
191351.907,13.672,21.973,37.109,17.578,4.395,0
191351.911,19.531,13.672,36.621,40.039,31.250,0
191351.914,20.020,18.555,34.668,29.785,37.109,0
191351.918,16.113,32.715,36.133,9.766,4.883,0
191351.922,19.043,37.598,34.180,14.648,-23.926,0
191351.926,21.484,38.574,29.785,24.902,-7.812,0
191351.930,21.484,35.645,25.391,25.879,5.371,0
191351.934,36.621,37.109,28.320,16.602,4.395,0
191351.938,36.621,36.133,32.715,11.230,-19.531,0
191351.942,14.648,25.391,31.738,15.137,1.953,0
191351.946,16.113,26.855,33.203,23.438,49.805,0
191351.950,20.020,28.809,35.156,16.113,52.734,0
191351.954,16.602,31.250,33.203,12.207,49.805,0
191351.957,22.949,29.785,31.738,20.508,47.852,0
191351.961,28.320,23.438,38.574,37.109,39.062,0
191351.965,28.809,26.367,39.551,33.691,55.664,0
191351.969,25.391,36.133,34.668,12.695,21.973,0
191351.973,12.695,36.133,29.785,15.625,-12.207,0
191351.977,19.043,28.320,24.414,35.156,35.645,0
191351.981,33.203,27.344,24.902,32.227,72.266,0
191351.985,29.297,24.414,39.062,15.137,32.227,0
191351.989,15.625,25.391,43.457,8.789,-4.395,0
191351.993,10.742,23.438,36.133,18.555,27.344,0
191351.997,25.391,26.855,32.715,24.902,67.871,0
191352.000,34.668,38.574,28.809,26.855,29.297,0
191352.004,25.391,38.574,27.344,28.320,-41.504,0
191352.008,16.113,31.250,32.227,22.949,-28.809,0
191352.012,24.902,31.250,34.668,31.250,24.902,0
191352.016,36.133,37.598,32.715,27.344,-9.766,0
191352.020,35.645,37.109,37.598,18.066,-40.039,0
191352.024,29.297,30.762,38.574,23.926,-5.371,0
191352.028,31.738,27.344,29.297,38.086,73.730,0
191352.032,34.180,28.809,25.879,31.250,84.473,0
191352.036,33.691,32.227,20.020,15.625,38.574,0
191352.039,25.391,33.203,19.531,23.438,15.625,0
191352.043,24.414,27.832,27.344,41.992,33.691,0
191352.047,42.480,25.391,27.344,48.340,26.855,0
191352.051,43.457,31.738,29.785,22.949,-38.574,0
191352.055,28.320,37.598,32.715,10.254,25.391,0
191352.059,23.926,32.227,35.645,23.438,112.305,0
191352.063,29.297,27.344,39.062,30.273,82.520,0
191352.067,31.250,29.785,39.551,20.996,36.133,0
191352.071,27.832,34.180,39.551,20.508,11.230,0
191352.075,22.461,34.668,27.344,32.715,30.762,0
191352.079,24.902,33.203,21.484,35.645,57.617,0
191352.082,24.902,31.250,31.250,20.020,44.434,0
191352.086,21.484,23.438,33.691,9.277,4.883,0
191352.090,19.531,17.090,26.855,18.555,14.648,0
191352.094,12.695,19.531,21.973,30.273,71.289,0
191352.098,24.414,27.344,29.297,20.996,13.672,0
191352.102,37.598,35.156,35.156,10.742,-9.766,0
191352.106,23.438,40.039,33.691,13.672,26.855,0
191352.110,23.926,35.156,25.879,21.973,51.270,0
191352.114,31.738,37.598,18.555,33.691,67.871,0
191352.118,30.762,41.504,20.020,34.180,24.902,0
191352.122,22.461,29.297,27.832,15.625,16.602,0
