timestamps,TP9,AF7,AF8,TP10,Right AUX,Estimulo
216827.555,51.270,46.387,21.973,48.828,-24.414,1
216827.559,43.945,44.434,33.203,55.664,3.906,0
216827.563,38.574,25.879,51.758,49.805,52.734,0
216827.567,24.902,7.324,50.293,34.180,17.578,0
216827.570,21.484,7.324,31.250,26.367,4.883,0
216827.574,27.344,13.184,7.812,30.273,26.367,0
216827.578,27.832,32.227,0.977,35.645,58.594,0
216827.582,24.414,38.574,20.508,19.043,71.777,0
216827.586,25.879,32.715,36.621,5.371,24.414,0
216827.590,30.273,37.109,44.922,17.578,4.883,0
216827.594,28.320,35.156,43.457,21.973,-0.488,0
216827.598,29.785,30.273,40.527,23.438,-4.883,0
216827.602,40.527,26.367,42.969,46.387,6.348,0
216827.606,54.688,20.996,37.598,54.199,3.418,0
216827.610,51.270,20.508,21.973,43.945,0.977,0
216827.613,37.109,27.344,18.066,40.527,-0.488,0
216827.617,43.945,39.062,26.855,48.340,3.418,0
216827.621,51.758,38.086,26.367,48.828,14.160,0
216827.625,46.387,36.133,32.227,35.645,51.758,0
216827.629,43.945,38.574,33.691,29.785,20.996,0
216827.633,41.504,37.109,31.250,28.320,-18.555,0
216827.637,53.711,45.410,24.414,34.180,23.926,0
216827.641,55.664,44.434,21.484,41.992,22.949,0
216827.645,39.062,30.273,18.066,36.621,1.465,0
216827.649,26.855,30.762,19.043,34.180,8.301,0
216827.652,33.691,28.320,42.969,37.109,27.832,0
216827.656,44.922,29.297,51.758,55.176,21.973,0
216827.660,52.734,39.551,46.387,59.570,32.715,0
216827.664,37.598,26.367,37.109,32.715,65.430,0
216827.668,27.832,10.254,31.738,27.344,11.719,0
216827.672,35.645,18.066,22.461,29.785,2.930,0
216827.676,37.598,33.691,4.883,42.969,14.160,0
216827.680,31.250,43.457,20.996,53.223,3.906,0
216827.684,29.785,30.273,56.152,39.551,49.316,0
216827.688,36.621,20.996,50.781,32.715,26.367,0
216827.692,39.551,33.203,37.109,31.738,17.090,0
216827.695,41.992,43.457,37.109,41.504,72.754,0
216827.699,39.062,41.992,27.832,54.688,53.711,0
216827.703,35.156,37.109,14.648,61.523,-4.395,0
216827.707,39.062,37.109,5.859,46.875,-11.719,0
216827.711,32.715,29.785,25.391,41.016,6.348,0
216827.715,15.625,20.996,60.547,40.527,7.812,0
216827.719,22.461,20.020,58.105,16.602,-15.137,0
216827.723,25.879,24.902,39.551,12.207,3.418,0
216827.727,11.719,25.391,28.320,17.090,28.809,0
216827.731,21.973,26.367,23.438,21.973,4.883,0
216827.735,33.691,33.691,20.508,31.250,11.230,0
216827.738,32.715,25.879,11.719,33.691,39.551,0
216827.742,45.410,30.762,12.695,48.828,75.684,0
216827.746,38.086,37.109,25.391,51.758,65.430,0
216827.750,32.227,20.020,52.246,37.109,55.664,0
216827.754,30.762,15.625,58.105,32.227,84.961,0
216827.758,25.879,10.742,37.598,25.879,84.961,0
216827.762,26.367,20.996,27.344,21.973,67.383,0
216827.766,23.926,37.109,22.461,17.578,15.625,0
216827.770,34.180,38.574,30.273,23.438,0.000,0
216827.774,37.109,38.086,31.738,34.180,18.555,0
216827.777,38.574,38.086,17.090,43.457,54.688,0
216827.781,46.387,29.785,18.555,52.246,65.918,0
216827.785,38.086,12.207,34.668,56.641,52.734,0
216827.789,29.785,16.113,40.039,50.781,60.059,0
216827.793,36.621,37.598,45.898,31.738,22.949,0
216827.797,38.086,45.410,45.410,30.273,9.277,0
216827.801,36.133,32.715,28.809,30.273,41.992,0
216827.805,34.180,27.344,14.648,26.367,40.039,0
216827.809,31.738,31.250,17.090,23.926,-8.789,0
216827.813,35.645,35.645,33.691,27.832,2.930,0
216827.817,48.340,44.434,39.551,39.062,55.176,0
216827.820,46.387,34.668,41.504,39.062,36.621,0
216827.824,37.109,17.090,47.363,28.809,6.836,0
216827.828,33.691,17.578,42.969,32.227,41.016,0
216827.832,27.832,20.996,36.621,33.691,48.828,0
216827.836,22.949,20.996,31.250,24.902,62.500,0
216827.840,42.969,28.320,19.043,31.738,57.617,0
216827.844,47.363,44.922,20.996,40.527,19.531,0
216827.848,25.391,39.062,40.039,30.273,29.785,0
216827.852,28.320,26.855,56.641,26.367,42.969,0
216827.856,36.621,27.832,43.945,35.645,29.785,0
216827.860,49.316,33.691,38.574,44.922,34.180,0
216827.863,54.688,37.109,54.199,50.781,71.777,0
216827.867,30.762,28.320,46.875,36.133,104.980,0
216827.871,23.438,20.020,34.180,17.090,48.340,0
216827.875,36.621,25.879,22.949,28.320,37.598,0
216827.879,40.039,37.109,22.949,41.504,71.289,0
216827.883,45.410,47.852,47.363,50.781,29.297,0
216827.887,48.340,53.711,54.688,68.359,3.418,0
216827.891,51.758,38.086,38.086,58.105,7.812,0
216827.895,54.688,37.109,41.504,42.480,-12.207,0
216827.899,41.992,44.434,44.434,41.992,6.348,0
216827.902,37.109,34.668,25.391,36.621,-4.395,0
216827.906,41.992,32.227,10.254,25.879,-31.738,0
216827.910,26.367,31.738,16.602,20.020,-13.184,0
216827.914,17.090,25.391,34.180,18.555,8.301,0
216827.918,24.902,29.785,43.945,25.391,-9.766,0
216827.922,33.203,37.109,50.781,42.480,21.484,0
216827.926,34.180,33.691,48.828,43.945,32.715,0
216827.930,27.832,28.320,30.762,36.133,10.742,0
216827.934,29.785,38.574,17.090,29.785,61.035,0
216827.938,41.504,52.246,27.344,32.227,37.598,0
216827.942,50.781,42.480,24.414,37.598,11.719,0
216827.945,32.715,27.344,12.695,30.273,22.949,0
216827.949,29.297,24.414,24.902,25.391,5.371,0
216827.953,43.457,19.531,48.828,19.043,15.625,0
216827.957,35.156,15.137,53.223,20.020,15.625,0
216827.961,28.809,21.973,37.109,18.066,-44.922,0
216827.965,26.367,20.996,33.203,16.113,-36.621,0
216827.969,28.809,26.367,36.621,30.273,-22.461,0
216827.973,36.621,35.645,25.391,44.922,-21.484,0
216827.977,33.203,32.715,11.230,37.598,-14.160,0
216827.981,39.551,35.645,16.602,43.945,1.465,0
216827.985,47.363,40.527,30.273,55.664,32.227,0
216827.988,29.297,28.809,42.480,31.250,30.762,0
216827.992,25.391,23.438,47.852,21.973,24.902,0
216827.996,29.785,34.668,41.504,26.855,17.090,0
216828.000,20.020,24.414,34.668,18.066,-16.113,0
216828.004,19.043,12.207,25.391,21.484,-42.480,0
216828.008,26.855,18.066,4.883,31.250,-36.621,0
216828.012,28.320,17.578,6.836,25.391,6.836,0
216828.016,35.645,25.391,38.086,35.156,39.551,0
216828.020,40.039,41.504,58.594,58.105,44.922,0
216828.024,41.992,36.133,49.316,51.270,63.965,0
216828.027,29.785,20.020,38.086,37.109,86.914,0
216828.031,34.180,16.113,32.227,32.227,37.598,0
216828.035,46.875,25.879,18.555,20.020,0.488,0
216828.039,36.621,33.691,15.137,23.926,23.926,0
216828.043,35.156,35.156,22.461,33.203,2.441,0
216828.047,34.668,32.715,29.297,28.320,-5.859,0
216828.051,31.250,33.691,36.621,31.738,17.090,0
216828.055,39.062,31.250,35.156,35.156,32.715,0
216828.059,47.363,29.297,34.668,38.574,61.523,0
216828.063,49.316,39.062,37.109,43.457,50.293,0
216828.067,36.133,40.527,24.902,36.133,34.668,0
216828.070,24.902,34.180,9.766,37.109,33.203,0
216828.074,49.316,29.297,6.836,35.645,15.625,0
216828.078,51.758,30.762,21.484,20.020,7.812,0
216828.082,24.902,33.203,39.551,20.508,22.949,0
216828.086,23.926,30.273,43.945,23.926,34.180,0
216828.090,29.297,30.762,37.109,20.020,15.137,0
216828.094,25.879,22.461,39.062,22.461,3.906,0
216828.098,28.809,19.043,48.340,26.367,-3.906,0
216828.102,41.504,26.367,47.852,43.457,33.203,0
216828.106,39.062,33.203,40.039,47.852,50.293,0
216828.110,34.668,40.039,34.180,47.852,4.395,0
216828.113,47.852,36.621,35.156,65.430,22.461,0
216828.117,47.363,27.832,29.785,62.500,33.203,0
216828.121,44.434,28.320,31.250,48.828,46.875,0
216828.125,41.992,22.461,43.945,45.410,20.020,0
216828.129,39.062,22.949,36.621,31.250,-17.090,0
216828.133,41.016,25.879,37.598,32.227,36.133,0
216828.137,36.133,26.367,39.062,37.598,32.715,0
216828.141,38.574,33.203,38.086,20.508,0.000,0
216828.145,35.645,27.344,37.109,15.625,21.484,0
216828.149,24.902,21.484,27.832,26.855,68.848,0
216828.152,28.809,32.227,16.602,36.133,65.430,0
216828.156,44.434,41.504,21.484,42.969,47.852,0
216828.160,41.992,36.133,34.180,45.898,55.664,0
216828.164,29.785,30.762,38.574,44.922,54.688,0
216828.168,39.062,37.598,36.133,45.898,54.199,0
216828.172,46.387,29.297,33.203,35.156,60.059,0
216828.176,35.156,7.812,30.762,20.020,30.273,0
216828.180,30.273,20.020,24.902,25.879,27.832,0
216828.184,39.062,40.527,26.367,31.250,14.648,0
216828.188,37.109,42.969,16.602,31.250,21.484,0
216828.192,44.434,46.875,13.672,41.504,75.195,0
216828.195,34.180,39.062,33.691,43.945,63.477,0
216828.199,21.973,22.949,42.969,35.156,43.945,0
216828.203,33.691,29.297,41.504,30.762,64.453,0
216828.207,34.668,40.527,40.527,42.969,53.711,0
216828.211,41.504,33.203,31.738,32.715,29.785,0
216828.215,32.715,24.414,18.555,19.531,17.578,0
216828.219,39.062,27.832,19.043,33.203,19.043,0
216828.223,45.898,36.133,27.344,38.574,32.227,0
216828.227,34.180,35.156,20.996,27.344,25.879,2
216828.231,44.434,18.066,20.508,27.832,31.250,0
216828.235,46.387,8.789,38.574,41.992,27.344,0
216828.238,38.086,27.832,36.621,44.922,-0.977,0
216828.242,30.762,43.457,24.902,50.781,-14.648,0
216828.246,20.996,29.785,21.973,39.062,-27.344,0
216828.250,19.531,16.602,21.484,14.648,50.781,0
216828.254,25.391,18.066,29.785,17.090,101.074,0
216828.258,23.926,26.367,31.738,20.508,74.707,0
216828.262,31.738,39.062,22.461,31.738,93.750,0
216828.266,27.344,41.016,28.320,38.086,115.234,0
216828.270,20.020,33.203,29.297,31.738,104.980,0
216828.274,34.180,30.273,25.391,30.762,112.305,0
216828.277,43.945,23.438,25.879,36.133,111.816,0
216828.281,51.270,20.996,29.785,54.199,94.727,0
216828.285,52.734,24.902,41.016,54.688,78.613,0
216828.289,52.246,29.297,49.316,41.016,50.293,0
216828.293,40.039,38.086,46.387,37.598,27.832,0
216828.297,33.691,46.875,37.598,40.039,43.945,0
216828.301,45.410,46.387,34.668,41.992,62.500,0
216828.305,43.945,38.574,30.273,38.574,37.109,0
216828.309,42.969,41.016,26.367,38.574,54.688,0
216828.313,48.340,40.527,32.715,41.504,66.895,0
216828.317,48.828,37.598,31.250,44.434,54.199,0
216828.320,53.711,40.527,27.832,49.805,60.547,0
216828.324,50.781,29.297,32.227,46.875,29.785,0
216828.328,31.738,24.902,35.156,46.387,40.527,0
216828.332,28.809,19.531,29.297,53.711,46.387,0
216828.336,38.086,19.531,25.879,31.738,25.879,0
216828.340,41.504,36.133,41.016,15.625,27.832,0
216828.344,23.438,42.480,48.340,30.273,20.020,0
216828.348,22.461,38.574,32.227,37.598,20.020,0
216828.352,20.020,32.227,30.762,27.344,52.734,0
216828.356,20.996,26.367,30.762,26.367,69.824,0
216828.360,46.387,34.668,25.391,40.527,83.008,0
216828.363,43.945,33.203,30.273,50.781,113.770,0
216828.367,29.785,11.230,37.109,38.574,52.246,0
216828.371,33.691,5.859,35.645,30.762,34.668,0
216828.375,34.180,24.902,40.039,26.855,46.875,0
216828.379,38.574,52.246,46.387,13.672,44.434,0
216828.383,42.480,52.246,44.434,20.020,14.648,0
216828.387,34.180,37.109,30.762,33.691,51.758,0
216828.391,36.133,35.156,22.949,35.156,96.680,0
216828.395,35.645,38.086,33.691,27.832,58.594,0
216828.399,29.297,31.250,36.133,26.367,24.414,0
216828.402,37.598,25.391,31.738,35.156,17.090,0
216828.406,37.598,26.367,41.504,35.645,35.156,0
216828.410,19.043,27.344,41.016,25.879,49.316,0
216828.414,16.602,27.832,37.109,24.902,40.527,0
216828.418,33.691,30.273,42.480,27.344,28.809,0
216828.422,39.551,38.574,31.250,33.691,41.504,0
216828.426,37.109,38.574,26.855,33.203,42.969,0
216828.430,43.457,35.156,38.086,33.203,32.227,0
216828.434,36.133,23.926,30.273,36.133,43.945,0
216828.438,28.320,18.555,17.578,49.805,36.133,0
216828.442,33.203,30.762,24.902,45.898,41.504,0
216828.445,27.344,33.691,41.504,21.973,49.805,0
216828.449,31.250,28.809,37.109,23.438,43.457,0
216828.453,40.039,31.250,29.785,34.668,39.062,0
216828.457,44.922,35.645,37.598,44.922,55.664,0
216828.461,41.016,31.738,29.297,41.504,65.430,0
216828.465,33.691,19.043,27.832,34.668,62.500,0
216828.469,36.621,10.254,36.621,33.203,29.297,0
216828.473,44.922,19.043,30.273,41.992,-16.113,0
216828.477,41.992,22.461,25.879,42.480,17.090,0
216828.481,32.715,25.391,29.785,42.480,54.199,0
216828.485,31.250,40.039,35.156,40.039,66.406,0
216828.488,38.086,42.480,40.039,31.738,45.410,0
216828.492,38.574,39.062,37.598,36.133,33.691,0
216828.496,33.691,30.762,40.527,32.715,48.340,0
216828.500,27.832,20.996,42.480,23.438,39.062,0
216828.504,18.066,19.531,41.016,21.484,30.762,0
216828.508,22.461,23.926,35.645,28.320,26.367,0
216828.512,29.297,29.785,28.320,36.621,4.883,0
216828.516,27.832,22.949,25.391,41.992,-0.488,0
216828.520,32.227,16.113,22.461,30.273,0.488,0
216828.524,37.109,23.926,32.227,15.625,15.137,0
216828.527,33.691,35.645,39.551,15.137,32.227,0
216828.531,23.926,35.156,37.598,12.207,22.949,0
216828.535,14.648,37.598,38.086,14.160,41.016,0
216828.539,16.113,40.039,29.785,19.531,57.129,0
216828.543,3.418,37.109,20.996,13.184,61.035,0
216828.547,2.930,41.504,23.438,9.766,52.734,0
216828.551,15.137,39.062,38.574,10.254,11.719,0
216828.555,5.859,29.785,33.691,0.488,39.062,0
216828.559,-3.418,40.527,27.832,-7.324,30.273,0
216828.563,4.883,48.340,34.180,-8.301,11.719,0
216828.567,-1.465,44.922,24.414,-7.812,31.738,0
216828.570,-34.180,50.781,23.926,-27.832,-3.418,0
216828.574,-56.152,56.152,22.949,-65.430,1.953,0
216828.578,-60.059,54.199,29.785,-67.871,17.090,0
216828.582,-56.152,46.387,41.016,-57.129,3.418,0
216828.586,-55.176,61.523,28.809,-59.082,9.766,0
216828.590,-80.078,65.430,17.090,-76.172,27.344,0
216828.594,-103.027,53.711,30.273,-98.145,53.711,0
216828.598,-105.957,63.477,50.293,-108.398,41.504,0
216828.602,-120.117,71.777,35.645,-124.512,47.363,0
216828.606,-129.883,66.406,26.367,-134.277,22.949,0
216828.610,-143.555,54.688,36.133,-145.020,-1.465,0
216828.613,-135.254,70.801,38.086,-143.555,66.895,0
216828.617,-123.535,81.055,26.855,-142.578,36.621,0
216828.621,-137.207,64.453,18.555,-160.645,-44.922,0
216828.625,-144.043,61.523,21.973,-149.414,-15.137,0
216828.629,-137.207,71.777,27.344,-126.465,31.250,0
216828.633,-125.977,69.336,38.574,-126.953,39.551,0
216828.637,-116.211,63.477,23.438,-119.629,17.090,0
216828.641,-103.027,65.430,10.254,-110.840,30.273,0
216828.645,-108.398,66.406,34.668,-108.887,57.617,0
216828.649,-106.934,54.688,41.016,-104.004,47.852,0
216828.652,-102.539,44.922,20.996,-111.328,48.340,0
216828.656,-106.445,53.711,27.344,-106.934,31.250,0
216828.660,-97.168,46.875,36.621,-96.680,24.902,0
216828.664,-69.336,41.992,32.227,-72.754,-8.301,0
216828.668,-40.527,58.105,18.066,-52.246,9.277,0
216828.672,-46.387,57.617,2.441,-42.969,62.012,0
216828.676,-53.711,42.480,10.742,-43.945,28.320,0
216828.680,-47.852,33.691,32.227,-41.016,24.902,0
216828.684,-35.156,27.344,43.945,-26.367,34.180,0
216828.688,-24.902,21.973,39.551,-23.926,34.668,0
216828.692,-18.555,26.855,41.504,-11.719,30.273,0
216828.695,-0.488,22.949,38.086,4.395,31.250,0
216828.699,15.625,19.043,26.367,15.137,36.621,0
216828.703,28.809,24.902,10.254,31.250,34.180,0
216828.707,32.227,26.367,9.277,40.039,97.656,0
216828.711,33.203,25.391,27.344,37.109,88.379,0
216828.715,31.738,16.113,37.109,33.691,31.250,0
216828.719,39.551,20.508,24.902,44.922,66.895,0
216828.723,51.270,22.461,19.043,55.176,62.500,0
216828.727,50.293,15.625,33.691,45.898,33.203,0
216828.731,54.199,23.926,29.297,49.805,22.949,0
216828.735,54.688,30.762,16.113,62.988,41.016,0
216828.738,51.758,25.879,12.695,67.383,69.824,0
216828.742,63.477,23.438,28.320,75.684,64.453,0
216828.746,67.383,20.508,34.668,77.637,34.180,0
216828.750,57.129,25.879,29.297,85.449,22.949,0
216828.754,64.453,24.414,24.902,92.773,23.926,0
216828.758,74.707,18.066,20.508,79.590,-7.324,0
216828.762,75.684,13.672,17.578,73.730,36.133,0
216828.766,77.148,-1.953,14.160,76.660,75.195,0
216828.770,86.914,3.906,25.879,85.449,50.781,0
216828.774,97.168,22.461,37.598,91.797,81.543,0
216828.777,95.703,21.973,33.203,96.680,76.660,0
216828.781,93.750,15.137,30.762,91.309,47.852,0
216828.785,90.332,13.672,34.180,92.285,62.500,0
216828.789,93.262,24.414,35.645,104.004,58.594,0
216828.793,95.703,21.484,22.949,102.539,59.570,0
216828.797,93.262,0.977,12.207,85.449,50.293,0
216828.801,89.844,-4.883,10.254,76.172,-12.207,0
216828.805,84.961,9.766,21.973,91.797,-8.301,0
216828.809,92.773,20.020,39.062,108.398,44.434,0
216828.813,92.285,17.090,38.574,96.680,20.508,0
216828.817,81.543,7.812,37.598,75.195,18.066,0
216828.820,94.727,5.371,40.039,83.496,18.066,0
216828.824,101.074,7.812,35.156,96.680,31.738,0
216828.828,91.797,12.207,34.668,92.773,-1.465,0
216828.832,98.145,11.230,40.039,90.332,-5.859,0
216828.836,106.934,12.695,32.227,91.797,58.594,0
216828.840,107.910,16.602,28.320,96.680,50.293,0
216828.844,97.168,12.207,25.391,86.914,11.719,0
216828.848,86.914,4.883,17.578,72.754,4.883,0
216828.852,94.727,7.324,26.855,82.520,7.324,0
216828.856,105.469,14.160,39.062,99.121,-14.160,0
216828.860,88.379,2.930,41.992,105.469,-0.488,0
216828.863,81.543,-7.812,47.363,100.098,3.906,0
216828.867,89.355,5.371,43.457,96.191,-16.602,0
216828.871,81.055,21.484,19.531,95.703,16.602,0
216828.875,77.637,20.996,13.672,84.473,19.043,0
216828.879,81.055,25.391,24.414,76.172,13.672,0
216828.883,80.566,22.949,20.508,82.031,59.570,0
216828.887,77.637,11.230,26.367,74.707,53.223,0
216828.891,63.965,5.859,45.410,64.453,15.137,0
216828.895,52.734,3.906,50.293,64.453,4.395,0
216828.899,57.129,11.719,46.387,71.289,-1.465,0
216828.902,65.430,15.625,34.668,72.266,-8.301,0
216828.906,64.453,20.996,15.625,64.941,-0.977,0
216828.910,69.336,28.809,22.461,67.871,32.715,0
216828.914,74.707,25.879,32.715,76.172,30.762,0
216828.918,77.148,29.785,23.926,83.496,5.859,0
216828.922,72.754,23.438,23.438,76.172,22.461,0
216828.926,66.895,10.254,43.457,66.895,31.738,0
216828.930,57.129,15.625,43.945,66.406,2.930,0
216828.934,51.758,19.531,28.809,54.199,-3.418,0
216828.938,66.895,17.090,35.156,60.547,-29.785,0
216828.942,58.105,12.695,34.668,66.406,-29.297,1
216828.945,57.617,10.254,26.855,58.105,16.602,0
216828.949,69.336,18.555,27.832,60.059,7.812,0
216828.953,69.336,24.902,21.973,64.453,-3.418,0
216828.957,64.453,28.320,31.738,63.477,-10.742,0
216828.961,65.918,33.691,54.688,63.965,-17.090,0
216828.965,60.547,28.809,44.922,56.152,14.160,0
216828.969,51.270,19.043,37.109,45.898,28.809,0
216828.973,57.129,21.484,40.039,51.758,56.641,0
216828.977,48.340,23.926,28.320,48.828,53.223,0
216828.981,44.922,16.113,19.531,53.711,40.527,0
216828.985,57.617,11.230,22.949,53.223,63.477,0
216828.988,51.758,15.137,18.555,48.828,64.941,0
216828.992,56.641,26.367,21.973,64.453,52.246,0
216828.996,61.523,39.062,35.156,64.941,27.344,0
216829.000,52.246,36.133,41.016,50.781,32.227,0
216829.004,60.547,23.926,46.875,60.547,52.734,0
216829.008,58.105,25.879,47.363,57.617,48.340,0
216829.012,56.641,31.250,29.785,51.270,17.578,0
216829.016,57.129,13.184,13.672,55.176,9.766,0
216829.020,57.129,7.812,22.949,59.570,10.254,0
216829.024,62.988,32.715,31.250,62.988,34.668,0
216829.027,63.477,45.410,38.086,58.594,46.387,0
216829.031,55.664,35.645,49.316,53.223,12.207,0
216829.035,47.852,30.273,47.363,49.316,17.578,0
216829.039,55.664,34.180,44.434,53.223,8.301,0
216829.043,71.777,35.645,44.922,65.918,-18.066,0
216829.047,63.965,33.691,22.949,62.988,17.578,0
216829.051,53.223,28.809,19.043,49.805,6.348,0
216829.055,42.969,10.742,31.738,41.016,-7.812,0
216829.059,38.086,7.324,35.156,35.645,22.949,0
216829.063,39.062,21.484,38.086,37.598,31.738,0
216829.067,50.293,21.484,39.062,46.387,-9.277,0
216829.070,61.035,25.879,41.992,57.129,-14.160,0
216829.074,54.688,32.227,40.527,58.105,-10.254,0
216829.078,66.895,44.434,29.297,70.312,-24.414,0
216829.082,64.453,44.434,15.625,69.824,13.672,0
216829.086,41.016,21.484,12.695,40.527,12.695,0
216829.090,32.715,7.324,19.043,31.250,20.508,0
216829.094,38.086,17.578,31.738,48.340,51.758,0
216829.098,38.574,32.715,42.969,47.852,7.812,0
216829.102,39.551,28.320,46.875,30.762,8.789,0
216829.106,41.504,17.578,45.410,33.203,47.363,0
216829.110,43.457,27.344,38.086,47.363,41.992,0
216829.113,48.340,36.621,19.043,58.594,23.438,0
216829.117,57.129,34.668,12.207,57.129,4.883,0
216829.121,59.082,29.785,24.414,43.457,15.137,0
216829.125,38.574,25.879,22.461,32.227,21.484,0
216829.129,24.902,15.625,24.902,28.809,-5.371,0
216829.133,36.621,16.113,41.992,31.738,-19.043,0
216829.137,40.039,20.508,53.223,29.785,-13.184,0
216829.141,29.297,19.531,39.062,30.762,34.180,0
216829.145,41.992,32.715,25.879,46.387,64.453,0
216829.149,61.035,49.316,39.062,63.477,29.785,0
216829.152,59.082,40.039,32.227,67.383,32.715,0
216829.156,59.082,18.066,21.973,56.152,41.016,0
216829.160,44.922,8.789,29.297,42.969,95.215,0
216829.164,38.574,16.602,39.062,38.086,79.590,0
216829.168,46.387,29.785,44.434,46.387,28.809,0
216829.172,42.480,26.855,40.039,52.734,26.367,0
216829.176,42.480,26.855,34.180,48.340,-10.742,0
216829.180,50.293,36.621,38.086,49.316,-49.316,0
216829.184,49.805,34.668,46.875,54.688,-18.066,0
216829.188,52.246,24.414,39.551,46.875,12.207,0
216829.192,34.668,19.043,29.785,35.645,13.672,0
216829.195,25.879,23.438,25.879,30.273,57.129,0
216829.199,38.574,34.180,25.879,41.016,48.340,0
216829.203,30.273,23.438,32.227,35.156,42.969,0
216829.207,41.504,20.020,29.297,28.320,83.008,0
216829.211,55.664,31.738,27.832,37.109,61.035,0
216829.215,42.480,36.621,29.297,37.598,41.992,0
216829.219,41.992,40.039,34.180,41.016,51.758,0
216829.223,49.316,40.039,36.621,45.898,32.227,0
216829.227,45.410,34.180,34.668,49.805,63.477,0
216829.231,45.410,25.391,36.133,45.410,87.402,0
216829.235,44.922,24.414,19.043,38.574,41.992,0
216829.238,44.922,36.621,18.555,36.133,69.336,0
216829.242,51.270,41.504,34.668,35.645,97.656,0
216829.246,44.434,30.273,39.551,27.832,85.449,0
216829.250,41.504,12.207,36.621,26.367,51.758,0
216829.254,46.875,10.254,36.621,38.574,56.152,0
216829.258,46.387,26.367,34.180,45.410,71.289,0
216829.262,27.344,33.203,39.062,34.180,79.102,0
216829.266,21.484,28.320,36.621,21.484,58.105,0
216829.270,25.391,27.832,20.020,20.508,51.270,0
216829.274,24.414,28.320,20.020,30.762,97.656,0
216829.277,30.273,28.320,25.879,41.016,99.609,0
216829.281,37.109,27.832,36.133,40.039,-10.254,0
216829.285,32.227,29.297,44.922,27.832,-40.039,0
216829.289,35.156,31.250,32.227,35.156,11.230,0
216829.293,48.340,28.809,23.926,36.133,-19.531,0
216829.297,42.480,28.809,30.762,34.180,-25.879,0
216829.301,47.852,33.203,37.598,49.316,-16.113,0
216829.305,42.480,30.273,25.391,41.992,18.066,0
216829.309,28.320,31.250,27.344,36.621,38.574,0
216829.313,38.574,36.133,39.062,42.480,39.551,0
216829.317,37.109,24.902,39.062,39.551,34.668,0
216829.320,33.203,20.996,43.945,34.668,17.090,0
216829.324,36.133,29.297,36.621,34.668,25.879,0
216829.328,34.180,21.484,30.762,38.086,35.645,0
216829.332,41.992,17.578,39.551,35.156,36.621,0
216829.336,35.156,26.367,36.133,28.320,2.930,0
216829.340,31.738,39.551,39.062,37.109,14.648,0
216829.344,35.156,46.875,32.715,45.410,62.012,0
216829.348,27.832,35.645,20.020,26.367,32.715,0
216829.352,23.438,27.832,31.250,12.695,14.160,0
216829.356,26.367,26.855,32.227,24.414,36.133,0
216829.360,32.715,23.926,29.297,32.715,18.066,0
216829.363,35.645,27.832,35.645,38.574,22.461,0
216829.367,39.551,28.320,40.527,33.691,37.109,0
216829.371,38.574,26.367,41.504,25.879,-2.441,0
216829.375,37.109,16.113,44.434,24.414,-33.203,0
216829.379,41.992,12.207,33.691,24.414,20.020,0
216829.383,41.504,23.926,19.043,24.414,33.691,0
216829.387,40.039,32.227,23.926,29.297,28.809,0
216829.391,36.133,28.320,17.578,35.156,44.922,0
216829.395,33.691,20.996,10.254,30.273,35.156,0
216829.399,35.156,25.391,28.809,24.414,28.320,0
216829.402,34.180,33.203,40.039,20.996,22.461,0
216829.406,32.227,31.250,36.133,38.574,27.344,0
216829.410,49.805,29.785,40.527,61.035,45.410,0
216829.414,39.062,33.691,46.875,29.785,20.996,0
216829.418,6.348,36.133,44.434,-1.465,13.672,0
216829.422,18.066,35.645,41.992,16.113,44.922,0
216829.426,25.391,33.691,38.086,22.461,49.316,0
216829.430,18.555,27.344,29.785,18.066,68.848,0
216829.434,26.855,21.973,30.762,28.809,63.965,0
216829.438,27.832,24.902,17.090,31.738,53.223,0
216829.442,26.855,26.855,17.090,26.855,48.340,0
216829.445,32.227,22.461,38.574,30.273,45.898,0
216829.449,21.484,15.137,31.250,35.645,52.246,0
216829.453,27.344,18.555,30.762,41.992,46.387,0
216829.457,51.758,41.992,46.875,53.223,57.617,0
216829.461,46.387,55.664,53.223,57.617,51.270,0
216829.465,25.879,42.480,49.316,40.527,13.672,0
216829.469,21.973,22.949,33.203,24.902,42.480,0
216829.473,28.320,16.602,20.508,30.762,56.641,0
216829.477,31.738,26.855,25.879,28.809,42.969,0
216829.481,35.156,27.832,30.273,23.926,78.125,0
216829.485,44.434,22.461,27.344,32.227,41.992,0
216829.488,54.199,28.320,33.691,47.363,8.301,0
216829.492,49.316,29.297,37.598,43.945,13.184,0
216829.496,40.039,26.855,34.180,32.227,42.969,0
216829.500,30.762,23.926,34.668,33.203,68.848,0
216829.504,26.367,18.066,32.715,24.902,59.082,0
216829.508,24.414,17.578,24.414,20.020,34.668,0
216829.512,40.527,26.367,27.832,43.457,70.312,0
216829.516,46.387,23.926,40.039,43.457,121.582,0
216829.520,38.574,26.367,37.598,30.273,103.516,0
216829.524,43.457,42.969,30.273,33.203,85.938,0
216829.527,37.109,38.574,33.691,30.762,62.500,0
216829.531,41.504,34.668,41.504,34.668,7.324,0
216829.535,43.457,29.297,47.852,42.480,4.395,0
216829.539,32.227,15.137,35.156,40.039,55.176,0
216829.543,30.273,12.695,21.973,39.551,52.246,0
216829.547,33.203,7.812,29.297,36.621,19.043,0
216829.551,36.133,8.301,37.109,21.973,-23.438,0
216829.555,50.781,28.809,30.762,28.320,19.043,0
216829.559,68.848,38.574,23.438,51.270,54.199,0
216829.563,63.477,42.969,41.992,48.340,29.297,0
216829.567,53.223,47.852,50.781,36.133,8.301,0
216829.570,39.551,27.344,40.527,31.738,10.742,0
216829.574,34.668,15.137,35.156,31.738,14.648,0
216829.578,43.457,20.020,28.809,31.250,-2.441,0
216829.582,40.527,16.113,25.391,24.414,10.742,0
216829.586,33.691,20.996,25.391,35.645,23.438,0
216829.590,41.016,27.832,25.391,47.852,42.969,0
216829.594,43.457,27.832,20.508,37.598,25.391,0
216829.598,36.133,32.227,27.344,32.715,-20.508,0
216829.602,33.691,37.109,49.805,36.133,6.348,0
216829.606,44.434,33.691,50.781,37.598,15.625,0
216829.610,47.363,26.855,33.691,43.945,11.230,0
216829.613,32.227,22.461,21.973,38.086,21.484,0
216829.617,27.344,20.508,30.762,27.344,29.785,0
216829.621,25.879,20.508,37.109,25.391,58.594,0
216829.625,21.973,11.230,30.762,30.762,49.805,0
216829.629,29.785,9.766,31.250,39.062,51.270,0
216829.633,32.715,23.438,34.180,34.668,76.660,0
216829.637,32.715,30.762,35.156,32.715,58.594,0
216829.641,39.062,35.156,39.551,33.203,80.078,0
216829.645,35.156,31.738,30.762,27.344,106.934,0
216829.649,39.551,25.879,24.414,37.109,84.473,0
216829.652,36.133,25.879,27.344,34.668,71.777,0
216829.656,34.180,29.297,29.785,39.551,60.059,0
216829.660,41.992,27.344,33.203,56.152,37.109,1
216829.664,41.016,19.043,32.715,42.969,43.457,0
216829.668,39.062,18.555,41.504,25.879,38.574,0
216829.672,38.574,20.996,37.598,31.250,23.438,0
216829.676,44.434,26.855,17.578,39.551,62.012,0
216829.680,41.504,34.668,25.391,39.551,96.680,0
216829.684,46.875,38.574,44.922,34.668,66.895,0
216829.688,59.082,32.227,44.922,40.527,38.086,0
216829.692,44.434,28.809,44.434,45.898,60.059,0
216829.695,44.922,38.086,45.898,46.875,61.035,0
216829.699,56.641,46.387,39.062,48.828,27.832,0
216829.703,46.875,36.133,29.297,40.039,12.207,0
216829.707,43.457,18.555,30.762,38.574,54.199,0
216829.711,43.945,20.508,25.391,41.016,54.199,0
216829.715,44.434,32.715,20.020,46.875,-14.648,0
216829.719,35.156,22.949,14.648,56.152,-9.766,0
216829.723,41.504,27.344,23.926,56.641,36.621,0
216829.727,43.945,48.340,42.969,57.617,48.828,0
216829.731,29.785,41.016,31.738,39.062,-15.625,0
216829.735,30.273,19.043,28.320,22.461,-18.066,0
216829.738,28.809,11.719,35.156,27.832,57.617,0
216829.742,27.344,22.949,42.480,32.227,55.176,0
216829.746,37.109,41.504,38.574,36.621,20.508,0
216829.750,26.367,35.645,30.762,34.668,31.738,0
216829.754,24.414,18.066,34.180,34.668,68.848,0
216829.758,30.762,20.508,36.621,40.527,56.641,0
216829.762,29.785,27.832,37.598,41.992,21.973,0
216829.766,34.668,26.367,43.945,40.039,14.648,0
216829.770,33.203,23.926,39.062,36.133,9.277,0
216829.774,25.391,31.738,28.809,28.809,25.391,0
216829.777,25.391,33.203,27.832,24.414,16.602,0
216829.781,36.621,32.715,31.250,31.738,12.695,0
216829.785,37.598,28.809,34.668,35.645,40.527,0
216829.789,40.527,20.020,28.809,34.180,14.160,0
216829.793,33.691,26.855,21.973,37.109,-19.043,0
216829.797,24.902,20.996,23.926,38.574,16.602,0
216829.801,31.738,13.184,34.180,42.480,75.195,0
216829.805,39.062,25.391,29.297,48.828,78.613,0
216829.809,38.574,21.484,23.438,32.715,70.801,0
216829.813,36.133,23.926,34.180,27.832,90.332,0
216829.817,37.598,46.875,33.691,36.621,42.480,0
216829.820,33.203,47.852,30.762,40.039,0.488,0
216829.824,31.738,35.156,34.180,31.738,27.832,0
216829.828,39.551,32.715,31.738,26.367,17.578,0
216829.832,48.828,33.691,26.855,40.527,-13.184,0
216829.836,39.551,36.621,22.949,36.621,-12.695,0
216829.840,30.273,42.969,32.227,22.949,21.484,0
216829.844,40.039,40.527,43.945,41.504,31.738,0
216829.848,42.969,40.527,45.898,51.758,-4.395,0
216829.852,34.180,37.598,30.762,32.715,68.848,0
216829.856,29.297,24.902,21.973,20.508,91.797,0
216829.860,39.062,31.250,38.574,27.344,30.762,0
216829.863,42.480,42.480,36.621,35.645,17.578,0
216829.867,40.039,24.902,10.254,39.551,0.488,0
216829.871,31.250,12.207,8.789,37.598,-2.930,0
216829.875,22.461,21.484,32.227,25.391,-6.836,0
216829.879,36.133,37.109,50.293,25.879,-24.902,0
216829.883,48.340,42.480,56.641,32.715,-10.254,0
216829.887,42.969,38.086,47.852,39.062,26.855,0
216829.891,26.367,20.996,31.738,35.156,14.160,0
216829.895,27.832,19.531,13.672,35.156,38.086,0
216829.899,29.785,35.156,20.508,30.762,28.809,0
216829.902,20.996,30.273,34.180,28.809,38.574,0
216829.906,31.250,26.855,28.809,36.133,42.480,0
216829.910,43.457,28.809,44.434,33.691,13.184,0
216829.914,32.715,31.250,59.082,35.156,33.203,0
216829.918,29.297,22.949,39.062,30.273,29.785,0
216829.922,43.945,25.879,28.809,37.109,41.016,0
216829.926,42.969,38.574,26.367,38.086,23.926,0
216829.930,35.645,33.691,30.762,31.250,-15.625,0
216829.934,34.668,29.785,46.387,36.621,26.367,0
216829.938,49.316,22.949,37.598,39.062,52.734,0
216829.942,51.270,23.926,35.156,44.922,20.996,0
216829.945,38.574,35.156,47.852,47.852,38.574,0
216829.949,43.457,44.922,39.062,53.711,28.320,0
216829.953,41.016,39.062,14.160,54.688,-15.137,0
216829.957,32.715,24.902,26.855,52.734,2.930,0
216829.961,27.832,20.508,52.246,56.152,62.500,0
216829.965,37.109,29.785,46.875,48.828,68.359,0
216829.969,41.016,47.852,43.457,31.250,32.715,0
216829.973,40.039,41.992,48.828,25.879,49.805,0
216829.977,41.504,33.203,38.086,41.504,48.828,0
216829.981,37.598,35.156,22.949,46.387,47.363,0
216829.985,47.363,29.785,29.297,39.551,89.844,0
216829.988,50.781,23.438,26.367,44.922,55.176,0
216829.992,36.621,20.508,21.484,50.781,37.598,0
216829.996,26.367,25.879,35.156,43.945,34.180,0
216830.000,37.109,52.246,52.246,41.992,33.691,0
216830.004,45.410,52.246,56.641,47.852,73.730,0
216830.008,26.367,30.762,43.945,31.250,62.988,0
216830.012,33.691,27.344,27.832,27.344,37.598,0
216830.016,50.781,30.273,23.438,31.738,1.953,0
216830.020,41.504,24.414,35.645,33.203,19.531,0
216830.024,34.180,19.531,52.246,37.109,65.918,0
216830.027,43.457,14.160,61.523,40.039,31.250,0
216830.031,49.316,20.020,48.340,49.316,13.672,0
216830.035,42.969,45.410,30.762,62.988,31.738,0
216830.039,46.875,43.945,42.969,60.059,51.758,0
216830.043,31.250,34.668,58.105,36.621,47.363,0
216830.047,17.578,33.691,49.316,25.879,21.484,0
216830.051,34.180,24.414,30.762,25.391,3.418,0
216830.055,30.762,13.672,31.738,19.531,-16.113,0
216830.059,26.367,15.625,35.645,27.344,5.371,0
216830.063,29.297,17.578,35.156,27.344,1.465,0
216830.067,33.691,22.949,34.668,32.227,18.066,0
216830.070,36.133,20.020,32.227,39.062,25.879,0
216830.074,37.598,27.344,44.922,48.828,8.301,0
216830.078,36.621,40.527,41.504,58.594,18.066,0
216830.082,35.645,33.203,30.273,44.922,8.789,0
216830.086,23.926,29.297,37.598,27.344,26.855,0
216830.090,26.367,29.297,39.062,23.926,60.547,0
216830.094,32.227,30.273,34.668,27.344,49.316,0
216830.098,27.344,33.691,22.949,29.297,58.594,0
216830.102,29.297,31.250,28.809,27.344,77.148,0
216830.106,34.668,23.926,43.457,26.855,68.848,0
216830.110,36.621,29.785,49.805,30.273,50.293,0
216830.113,40.527,28.320,42.480,34.180,46.387,0
216830.117,50.293,30.273,35.156,46.387,53.223,0
216830.121,49.805,38.086,32.227,42.969,26.855,0
216830.125,41.504,28.320,17.578,38.574,24.902,0
216830.129,42.480,29.297,20.020,51.270,49.805,0
216830.133,58.594,44.922,33.691,57.129,20.508,0
216830.137,53.223,46.387,41.016,48.828,41.016,0
216830.141,34.668,24.414,43.945,30.762,67.383,0
216830.145,29.785,25.391,37.109,22.949,41.504,0
216830.149,34.668,28.809,30.762,21.484,36.621,0
216830.152,33.691,20.996,34.668,26.367,19.043,0
216830.156,29.785,28.320,31.250,32.227,24.414,0
216830.160,26.855,29.785,19.531,29.297,26.855,0
216830.164,33.691,29.785,17.578,33.691,-7.812,0
216830.168,40.039,35.156,33.691,36.621,-17.090,0
216830.172,37.598,35.645,47.363,38.086,10.254,0
216830.176,40.039,38.086,48.340,45.898,3.906,0
216830.180,35.645,35.645,37.598,40.527,10.254,0
216830.184,29.785,21.484,37.598,21.973,45.410,0
216830.188,36.621,7.324,46.387,21.973,36.133,0
216830.192,45.410,21.484,43.457,34.180,12.207,0
216830.195,40.039,33.691,23.926,26.855,25.879,0
216830.199,16.113,20.020,21.973,20.020,13.184,1
216830.203,13.672,14.160,34.668,26.367,16.113,0
216830.207,23.438,14.648,38.574,25.391,31.250,0
216830.211,26.367,31.250,36.621,19.043,-14.648,0
216830.215,41.016,43.457,36.621,23.926,-4.395,0
216830.219,36.621,39.551,38.574,32.227,22.949,0
216830.223,37.109,36.621,43.945,39.551,12.695,0
216830.227,46.875,27.832,38.086,49.316,9.277,0
216830.231,37.109,21.484,28.809,42.969,4.883,0
216830.235,31.738,13.184,38.574,29.297,-13.184,0
216830.238,45.898,22.949,35.156,36.621,4.883,0
216830.242,45.898,34.668,22.949,41.016,37.598,0
216830.246,42.480,41.016,26.367,48.340,26.367,0
216830.250,46.387,47.363,34.668,55.176,15.137,0
216830.254,32.227,38.574,28.320,47.363,30.273,0
216830.258,30.273,27.832,27.832,31.738,53.711,0
216830.262,34.180,22.949,33.691,39.062,58.105,0
216830.266,32.227,23.438,28.320,42.480,40.039,0
216830.270,35.645,32.227,36.621,35.156,60.547,0
216830.274,35.645,31.250,38.086,27.344,77.637,0
216830.277,24.902,19.043,26.855,10.742,60.547,0
216830.281,19.531,19.043,28.809,13.672,41.504,0
216830.285,16.602,22.461,34.180,17.090,27.832,0
216830.289,30.273,31.250,44.434,18.066,62.500,0
216830.293,39.551,30.762,41.504,32.715,102.539,0
216830.297,23.438,13.672,28.809,37.598,72.266,0
216830.301,37.109,24.902,28.320,33.203,2.930,0
216830.305,45.410,41.992,26.855,41.504,-15.137,0
216830.309,21.973,24.902,32.227,41.016,15.137,0
216830.313,16.602,12.695,39.062,30.762,21.973,0
216830.317,28.809,16.602,31.738,34.180,13.184,0
216830.320,32.715,9.277,29.785,41.016,6.348,0
216830.324,27.832,8.301,41.992,39.551,16.113,0
216830.328,31.738,21.973,46.387,38.574,30.273,0
216830.332,30.273,32.715,33.691,40.527,21.484,0
216830.336,40.039,41.992,36.621,33.691,24.414,0
216830.340,48.828,41.016,35.645,34.180,28.320,0
216830.344,37.109,32.227,26.367,46.387,6.836,0
216830.348,17.090,25.879,28.320,21.484,-12.207,0
216830.352,11.719,20.508,28.809,3.418,30.762,0
216830.356,27.832,25.391,31.738,24.902,81.543,0
216830.360,40.039,33.203,37.598,39.062,64.941,0
216830.363,36.621,25.879,32.227,40.527,43.457,0
216830.367,31.738,15.137,28.809,38.086,41.504,0
216830.371,28.809,17.090,32.715,31.738,20.508,0
216830.375,35.645,40.039,35.645,36.133,3.906,0
216830.379,37.598,51.270,33.203,39.062,19.043,0
216830.383,34.180,46.875,34.668,29.297,46.875,0
216830.387,27.344,32.715,22.949,22.461,54.199,0
216830.391,23.438,18.066,8.301,17.090,4.395,0
216830.395,36.133,27.344,18.555,26.367,42.480,0
216830.399,28.320,33.203,35.156,34.180,89.355,0
216830.402,30.762,24.902,41.992,35.645,41.016,0
216830.406,49.805,14.160,35.156,38.574,23.438,0
216830.410,39.551,28.809,32.227,50.293,50.293,0
216830.414,25.391,41.504,37.598,64.453,17.090,0
216830.418,32.227,43.457,39.062,50.781,16.602,0
216830.422,36.133,46.387,51.270,39.551,75.684,0
216830.426,35.156,42.480,41.992,39.551,37.109,0
216830.430,29.297,33.203,20.020,33.203,-10.254,0
216830.434,36.133,31.738,20.996,32.715,8.301,0
216830.438,32.227,29.297,24.414,22.949,-15.137,0
216830.442,20.508,18.066,24.902,19.531,-45.410,0
216830.445,23.926,15.137,28.320,33.203,-29.297,0
216830.449,35.156,22.949,27.344,45.898,0.000,0
216830.453,41.016,17.578,26.855,46.387,26.367,0
216830.457,27.344,21.484,46.875,36.621,35.645,0
216830.461,20.020,32.715,52.734,30.273,51.270,0
216830.465,35.156,36.621,41.016,34.180,36.621,0
216830.469,36.621,45.410,33.203,35.645,21.484,0
216830.473,42.969,41.016,24.902,31.250,49.805,0
216830.477,37.109,26.855,13.672,24.902,43.945,0
216830.481,30.273,26.367,23.926,21.484,33.203,0
216830.485,32.227,26.367,33.691,25.879,36.133,0
216830.488,40.039,22.949,29.297,36.133,28.320,0
216830.492,44.434,20.508,40.039,47.363,33.203,0
216830.496,35.645,24.902,52.246,45.898,15.137,0
216830.500,47.852,33.203,52.246,56.152,6.348,0
216830.504,43.457,31.250,37.109,53.223,26.367,0
216830.508,29.785,33.203,27.344,42.480,27.344,0
216830.512,32.715,30.762,26.367,53.223,23.926,0
216830.516,27.832,25.879,20.508,39.062,39.062,0
216830.520,20.508,26.367,22.461,15.625,66.895,0
216830.524,22.949,26.367,27.832,20.508,85.449,0
216830.527,29.785,30.273,36.133,27.832,50.293,0
216830.531,37.109,31.250,51.758,31.250,49.316,0
216830.535,23.926,25.879,48.340,30.273,69.336,0
216830.539,24.414,27.832,35.645,30.273,43.945,0
216830.543,50.781,28.809,39.062,42.480,9.766,0
216830.547,56.152,21.973,37.109,57.129,40.039,0
216830.551,34.180,9.766,28.320,39.551,74.707,0
216830.555,21.484,14.160,19.043,20.508,80.078,0
216830.559,31.250,28.809,15.137,25.879,78.613,0
216830.563,35.645,27.832,29.785,23.926,69.824,0
216830.567,40.527,34.668,44.922,22.461,43.457,0
216830.570,43.945,34.668,42.480,23.926,27.344,0
216830.574,44.434,33.691,32.227,26.855,22.461,0
216830.578,40.527,34.180,29.785,29.785,35.156,0
216830.582,39.062,31.738,33.691,42.480,49.805,0
216830.586,34.180,20.996,27.832,37.598,20.020,0
216830.590,19.043,15.625,18.066,24.414,33.203,0
216830.594,28.809,31.738,27.344,32.227,74.219,0
216830.598,33.203,27.832,31.738,33.691,61.035,0
216830.602,28.809,27.344,22.949,25.879,34.668,0
216830.606,34.668,40.039,25.391,28.320,22.949,0
216830.610,34.668,39.062,37.109,34.668,15.137,0
216830.613,40.527,40.039,34.180,28.320,13.184,0
216830.617,44.434,34.668,29.785,28.320,37.598,0
216830.621,34.180,23.926,26.855,33.203,43.457,0
216830.625,25.391,24.414,22.461,40.527,44.434,0
216830.629,30.273,28.320,13.672,37.598,50.293,0
216830.633,35.645,13.184,13.184,20.996,38.574,0
216830.637,34.180,5.859,32.715,27.344,69.336,0
216830.641,41.504,24.414,48.828,47.363,63.477,0
216830.645,48.828,32.227,48.340,45.898,80.566,0
216830.649,40.527,29.297,42.480,30.762,72.266,0
216830.652,26.855,35.645,33.691,28.320,50.781,0
216830.656,26.855,38.574,26.855,30.273,70.801,0
216830.660,28.809,29.297,31.738,25.879,20.508,0
216830.664,34.668,30.273,38.086,30.273,1.465,0
216830.668,39.062,35.645,37.598,40.039,-14.160,0
216830.672,36.133,37.109,39.551,48.340,-13.184,0
216830.676,24.414,29.785,41.992,33.203,-3.906,0
216830.680,36.133,25.391,40.039,31.250,-33.203,0
216830.684,39.551,32.715,38.574,42.969,6.836,0
216830.688,20.020,22.949,41.504,25.879,35.645,0
216830.692,20.508,31.250,40.039,29.297,19.531,0
216830.695,26.367,36.621,34.180,36.133,9.766,0
216830.699,32.227,29.297,39.551,39.551,28.809,0
216830.703,36.133,14.648,37.598,40.527,42.969,0
216830.707,35.645,1.953,37.598,35.156,52.246,0
216830.711,35.645,25.879,37.598,29.785,21.973,0
216830.715,32.715,47.852,37.109,28.809,1.953,0
216830.719,32.227,50.781,43.457,35.645,15.137,0
216830.723,40.527,41.504,45.410,47.852,-21.973,0
216830.727,51.758,37.109,43.457,47.852,5.371,0
216830.731,40.039,26.855,27.344,21.973,24.902,0
216830.735,35.156,19.043,23.926,17.578,-2.441,0
216830.738,38.086,34.180,27.344,33.203,15.625,0
216830.742,40.527,37.109,25.879,39.551,40.039,0
216830.746,38.086,20.996,27.832,34.668,15.137,0
216830.750,33.203,17.578,27.832,31.738,2.930,0
216830.754,37.109,30.762,28.320,36.133,24.902,0
216830.758,50.293,44.434,32.715,42.480,8.789,0
216830.762,46.875,41.504,35.156,41.016,25.879,0
216830.766,40.039,31.250,27.832,32.227,30.273,0
216830.770,36.621,25.391,12.695,30.762,-0.977,0
216830.774,32.715,28.809,21.484,38.574,34.180,0
216830.777,32.715,25.391,35.645,39.551,61.523,0
216830.781,24.414,19.043,21.484,26.367,46.387,0
216830.785,20.508,25.879,9.766,14.648,47.363,0
216830.789,29.785,24.414,24.902,21.973,81.543,2
216830.793,40.527,25.391,33.691,36.621,47.363,0
216830.797,28.809,30.762,35.645,28.809,40.527,0
216830.801,20.996,38.086,36.621,20.996,63.965,0
216830.805,23.926,32.227,29.785,26.855,33.691,0
216830.809,26.367,21.484,30.762,26.367,25.391,0
216830.813,34.180,30.762,30.762,26.855,28.809,0
216830.817,34.180,25.879,30.273,32.715,45.410,0
216830.820,39.062,14.648,39.062,39.551,67.383,0
216830.824,44.434,23.926,44.434,44.922,46.387,0
216830.828,49.805,33.203,37.109,55.176,31.738,0
216830.832,40.039,27.344,24.902,44.922,57.129,0
216830.836,28.320,11.230,26.367,20.996,53.223,0
216830.840,30.762,18.555,35.156,21.484,24.902,0
216830.844,28.809,35.645,41.504,32.227,48.340,0
216830.848,25.879,33.691,33.691,40.527,40.527,0
216830.852,24.902,28.809,20.020,39.551,20.508,0
216830.856,31.738,23.438,23.438,30.762,23.926,0
216830.860,41.016,26.855,28.809,37.598,0.000,0
216830.863,38.086,32.227,42.480,51.758,27.832,0
216830.867,34.180,26.367,44.922,48.340,61.523,0
216830.871,40.039,26.855,30.762,44.922,20.020,0
216830.875,40.527,22.461,31.738,48.340,32.715,0
216830.879,45.898,5.371,33.691,42.480,82.520,0
216830.883,44.922,17.578,26.367,39.551,59.082,0
216830.887,34.180,36.621,21.973,34.668,41.992,0
216830.891,34.668,42.480,20.508,36.621,58.105,0
216830.895,37.598,48.828,36.621,37.598,43.945,0
216830.899,33.691,39.062,48.340,35.645,-18.555,0
216830.902,37.598,29.297,25.879,40.039,7.324,0
216830.906,41.992,23.438,20.508,34.668,32.227,0
216830.910,39.062,22.461,31.250,35.645,28.320,0
216830.914,38.574,30.273,32.227,41.992,26.367,0
216830.918,54.688,36.621,44.434,46.387,-12.695,0
216830.922,54.199,19.043,43.457,56.152,-3.906,0
216830.926,40.039,8.301,19.531,52.734,17.578,0
216830.930,40.039,27.344,16.602,38.086,2.930,0
216830.934,42.969,37.109,31.738,38.086,33.691,0
216830.938,41.504,27.832,42.480,45.898,43.945,0
216830.942,27.832,20.996,34.180,42.969,7.812,0
216830.945,28.809,17.090,30.273,32.715,12.695,0
216830.949,37.598,23.438,41.504,36.621,13.184,0
216830.953,45.410,41.504,43.457,47.852,49.805,0
216830.957,38.574,41.992,28.809,43.945,41.016,0
216830.961,28.320,30.762,19.531,19.531,-13.184,0
216830.965,30.762,21.484,29.785,11.230,1.953,0
216830.969,31.738,7.812,38.086,21.973,2.930,0
216830.973,33.691,8.301,22.949,23.926,-2.930,0
216830.977,35.156,26.855,17.090,23.926,8.789,0
216830.981,37.109,32.715,28.809,26.855,23.438,0
216830.985,46.387,31.738,27.832,37.109,38.574,0
216830.988,52.246,40.039,28.320,40.527,20.996,0
216830.992,45.898,36.133,38.574,36.621,3.906,0
216830.996,41.992,42.480,44.922,49.316,-3.418,0
216831.000,49.316,44.922,50.781,51.270,5.371,0
216831.004,43.457,31.250,45.410,32.227,-8.301,0
216831.008,33.203,30.273,23.438,20.996,-35.156,0
216831.012,32.715,24.902,20.020,29.785,6.348,0
216831.016,34.668,15.137,33.203,40.039,21.973,0
216831.020,34.668,13.184,38.086,33.203,4.883,0
216831.024,25.879,21.973,41.016,28.320,43.945,0
216831.027,20.996,35.645,39.551,34.668,79.102,0
216831.031,20.996,41.992,34.180,39.062,68.359,0
216831.035,31.738,36.621,31.250,39.551,47.363,0
216831.039,42.480,35.645,26.367,43.945,24.902,0
216831.043,34.180,37.109,20.508,35.156,27.832,0
216831.047,31.738,35.645,20.020,29.785,40.527,0
216831.051,29.785,32.227,19.043,23.438,6.348,0
216831.055,33.691,28.809,23.926,13.184,8.301,0
216831.059,32.715,25.879,39.062,23.438,56.641,0
216831.063,23.438,26.855,43.457,31.250,45.898,0
216831.067,35.156,22.461,38.574,36.133,40.039,0
216831.070,48.828,11.230,34.668,42.480,35.645,0
216831.074,48.340,17.578,37.109,46.387,43.457,0
216831.078,31.738,26.855,39.062,30.762,84.473,0
216831.082,21.484,23.926,37.598,34.668,95.703,0
216831.086,33.203,30.762,25.391,46.387,50.293,0
216831.090,61.523,46.387,12.695,52.246,29.297,0
216831.094,61.523,48.340,26.367,52.734,35.156,0
216831.098,43.457,36.621,44.434,36.621,31.250,0
216831.102,42.480,33.203,46.387,35.156,68.359,0
216831.106,41.016,31.250,41.504,35.156,123.047,0
216831.110,39.551,32.227,40.039,36.621,109.863,0
216831.113,32.227,17.090,34.668,29.785,35.156,0
216831.117,20.020,6.836,22.461,18.066,33.691,0
216831.121,28.809,26.855,21.973,26.367,45.410,0
216831.125,32.227,33.203,14.648,36.133,47.363,0
216831.129,38.574,30.762,20.020,39.062,55.176,0
216831.133,41.504,30.273,43.945,38.574,65.430,0
216831.137,31.738,36.621,47.363,33.203,54.688,0
216831.141,40.039,41.016,37.598,35.645,-1.465,0
216831.145,39.551,36.133,36.621,37.598,24.414,0
216831.149,40.527,35.156,36.133,22.949,71.777,0
216831.152,29.785,25.879,29.785,14.160,30.273,0
216831.156,15.137,7.324,27.344,12.207,-16.602,0
216831.160,19.043,7.812,33.691,17.090,2.441,0
216831.164,28.809,19.531,36.133,35.156,54.199,0
216831.168,26.855,26.855,37.109,43.457,46.875,0
216831.172,23.438,30.762,37.598,28.809,33.691,0
216831.176,37.598,35.156,34.668,40.527,44.922,0
216831.180,41.016,40.039,29.297,43.945,20.996,0
216831.184,40.527,39.551,20.020,40.039,1.465,0
216831.188,43.945,40.039,26.855,42.480,13.184,0
216831.192,18.555,27.832,24.902,21.973,28.320,0
216831.195,10.254,10.742,26.367,18.066,63.477,0
216831.199,31.250,5.859,34.668,28.809,44.434,0
216831.203,38.574,20.508,35.156,32.715,-43.457,0
216831.207,31.250,40.039,49.316,44.922,-24.414,0
216831.211,39.551,45.898,42.480,47.363,20.508,0
216831.215,36.621,39.551,23.926,34.668,-11.230,0
216831.219,26.367,33.203,24.902,24.902,-34.668,0
216831.223,29.785,33.691,28.809,25.391,1.953,0
216831.227,40.039,33.203,34.668,35.645,25.391,0
216831.231,36.621,23.438,39.062,34.180,26.855,0
216831.235,43.457,16.602,35.645,33.203,28.320,0
216831.238,52.246,23.438,40.039,39.551,23.926,0
216831.242,36.621,39.551,38.086,43.945,10.742,0
216831.246,38.574,40.527,27.832,41.016,3.418,0
216831.250,45.410,30.762,24.414,55.176,29.785,0
216831.254,34.180,33.203,23.926,62.500,13.184,0
216831.258,35.645,37.109,22.949,41.504,7.324,0
216831.262,28.809,41.504,25.391,30.273,13.184,0
216831.266,15.137,33.691,36.621,22.461,29.785,0
216831.270,13.672,22.461,37.598,19.043,62.012,0
216831.274,32.715,28.320,29.297,29.297,26.367,0
216831.277,44.922,26.367,28.320,30.273,2.930,0
216831.281,40.527,23.926,25.391,30.273,-18.555,0
216831.285,47.852,33.691,20.508,45.898,-12.207,0
216831.289,50.293,42.969,22.461,54.199,-19.531,0
216831.293,41.016,28.320,26.855,45.410,-24.414,0
216831.297,29.297,-0.977,29.297,44.434,34.668,0
216831.301,37.109,7.812,33.203,54.199,29.785,0
216831.305,37.109,29.785,33.691,38.086,20.996,0
216831.309,31.250,35.645,37.598,30.762,57.617,0
216831.313,33.691,35.156,47.363,45.898,64.941,0
216831.317,20.508,24.414,39.551,35.645,19.531,0
216831.320,20.508,26.855,28.809,28.320,3.906,0
216831.324,41.504,34.668,29.297,43.945,23.926,0
216831.328,47.363,31.250,27.344,47.363,35.645,0
216831.332,45.410,24.414,25.391,50.293,50.781,0
216831.336,46.875,25.879,30.273,50.781,36.133,0
216831.340,41.504,21.484,32.715,36.621,12.207,0
216831.344,30.762,17.578,33.203,35.156,38.086,0
216831.348,31.250,32.227,35.156,40.039,29.785,0
216831.352,30.762,32.715,32.715,30.273,63.965,2
216831.356,24.902,28.809,36.133,27.344,90.820,0
216831.360,34.668,34.668,35.156,29.297,74.707,0
216831.363,46.875,36.621,28.809,27.344,91.309,0
216831.367,38.086,35.156,28.320,38.086,82.031,0
216831.371,28.320,28.320,22.949,44.434,74.707,0
216831.375,36.133,28.320,18.066,32.227,88.867,0
216831.379,34.668,29.297,27.832,23.438,54.688,0
216831.383,27.832,17.578,34.668,13.672,41.504,0
216831.387,31.738,19.531,31.250,16.113,64.453,0
216831.391,31.250,30.762,27.344,31.738,38.574,0
216831.395,21.973,18.555,21.973,22.949,51.270,0
216831.399,24.414,8.301,27.832,13.184,48.828,0
216831.402,40.039,12.695,37.598,29.785,38.086,0
216831.406,46.387,37.109,33.203,41.992,5.859,0
216831.410,38.086,48.828,20.508,33.691,-22.461,0
216831.414,22.461,33.203,14.160,27.344,-14.160,0
216831.418,29.785,32.715,22.461,32.227,12.695,0
216831.422,47.852,45.410,38.086,43.457,22.461,0
216831.426,43.945,31.738,34.668,31.738,-10.742,0
216831.430,40.039,5.371,32.227,21.973,26.855,0
216831.434,41.016,1.953,38.086,40.527,52.246,0
216831.438,45.410,16.113,45.410,49.316,58.105,0
216831.442,39.551,24.414,41.016,44.434,61.523,0
216831.445,30.273,32.715,24.414,43.457,59.570,0
216831.449,24.414,37.598,19.043,34.668,60.059,0
216831.453,23.438,32.715,24.902,23.438,65.918,0
216831.457,26.367,29.297,28.809,30.273,68.359,0
216831.461,29.297,33.203,28.320,34.180,36.133,0
216831.465,35.156,31.250,30.762,38.086,28.320,0
216831.469,43.457,23.438,34.668,41.016,3.418,0
216831.473,48.340,13.184,36.621,34.668,-3.906,0
216831.477,39.551,6.836,34.180,32.715,34.180,0
216831.481,42.480,28.809,34.180,31.738,43.945,0
216831.485,41.504,46.387,24.414,26.367,1.953,0
216831.488,33.691,43.457,19.043,25.391,4.883,0
216831.492,39.551,35.645,34.180,26.855,50.781,0
216831.496,45.898,31.250,32.227,38.574,53.711,0
216831.500,54.688,32.227,32.227,56.152,79.102,0
216831.504,43.457,37.109,39.062,50.781,53.223,0
216831.508,33.203,37.598,43.945,41.016,51.270,0
216831.512,56.641,42.969,55.176,49.805,61.523,0
216831.516,53.711,33.691,45.410,41.016,11.230,0
216831.520,28.320,15.137,30.762,26.855,41.504,0
216831.524,18.066,26.855,30.762,38.086,103.027,0
216831.527,19.531,38.086,26.367,32.227,89.355,0
216831.531,15.625,40.527,26.367,20.996,48.828,0
216831.535,16.113,30.762,32.715,27.344,64.453,0
216831.539,34.668,18.555,34.180,32.227,80.566,0
216831.543,45.898,35.645,42.969,46.875,44.434,0
216831.547,42.480,54.199,41.504,51.758,50.781,0
216831.551,39.551,45.898,32.715,32.715,80.566,0
216831.555,40.039,30.273,23.438,28.320,51.270,0
216831.559,33.691,24.902,30.273,25.879,45.898,0
216831.563,24.414,12.207,34.180,20.020,33.203,0
216831.567,22.461,12.207,34.180,27.832,22.949,0
216831.570,31.250,29.785,42.480,32.227,37.109,0
216831.574,40.527,30.762,36.621,31.738,32.227,0
216831.578,41.504,29.297,34.668,43.457,24.414,0
216831.582,38.574,42.480,40.039,57.129,46.387,0
216831.586,45.410,44.434,41.992,54.688,66.406,0
216831.590,46.387,31.738,41.016,42.969,11.719,0
216831.594,32.227,22.461,33.691,37.109,-5.371,0
216831.598,36.621,25.391,31.250,47.363,27.344,0
216831.602,31.738,29.785,33.203,40.527,-8.301,0
216831.606,18.555,20.020,36.133,20.020,-50.293,0
216831.610,23.926,15.137,37.598,21.484,-81.543,0
216831.613,30.273,19.043,28.320,31.738,-47.852,0
216831.617,30.762,18.066,14.160,30.273,-16.113,0
216831.621,24.902,25.879,21.973,22.461,-19.043,0
216831.625,22.949,36.621,45.410,22.949,-0.977,0
216831.629,23.438,37.598,45.410,29.785,0.000,0
216831.633,28.809,40.527,33.203,35.645,11.719,0
216831.637,39.551,43.945,31.738,33.203,14.648,0
216831.641,52.246,36.621,30.762,31.738,-12.207,0
216831.645,47.852,25.391,26.367,28.809,0.977,0
216831.649,33.691,21.973,19.043,33.203,2.441,0
216831.652,30.273,26.367,17.578,32.715,7.812,0
216831.656,20.996,31.738,30.273,26.855,5.371,0
216831.660,26.855,28.320,40.039,32.715,-2.930,0
216831.664,41.504,27.344,34.668,35.645,-24.902,0
216831.668,29.297,34.668,26.855,31.738,-39.551,0
216831.672,29.785,27.344,33.203,37.598,14.648,0
216831.676,40.039,19.531,31.738,44.922,46.875,0
216831.680,39.062,29.785,24.414,45.410,30.273,0
216831.684,40.039,38.574,36.133,59.570,-11.230,0
216831.688,31.250,34.180,32.227,61.523,20.020,0
216831.692,34.668,26.855,19.531,51.758,66.895,0
216831.695,30.762,25.879,29.785,39.062,20.508,0
216831.699,12.207,20.508,37.598,20.020,20.508,0
216831.703,15.137,14.648,39.551,14.648,66.406,0
216831.707,19.043,23.438,33.203,22.461,48.340,0
216831.711,15.137,31.250,32.715,19.531,10.742,0
216831.715,20.020,32.227,28.809,20.020,-19.043,0
216831.719,27.344,29.297,24.902,22.949,8.789,0
216831.723,24.414,22.461,30.273,20.996,54.688,0
216831.727,38.086,26.855,28.320,44.922,55.176,0
216831.731,41.504,36.621,22.949,48.340,16.602,0
216831.735,26.855,30.762,16.113,20.996,-5.859,0
216831.738,19.531,26.367,23.438,16.602,32.227,0
216831.742,32.227,35.645,33.203,25.879,52.246,0
216831.746,30.762,30.273,26.855,30.762,-16.602,0
216831.750,30.273,25.879,24.902,45.898,-69.336,0
216831.754,35.156,31.738,31.250,45.898,-44.434,0
216831.758,26.367,33.203,26.855,20.996,-58.105,0
216831.762,30.762,35.156,28.809,24.414,-20.020,0
216831.766,23.926,22.461,34.668,31.250,3.906,0
216831.770,16.602,14.160,29.297,22.461,-14.160,0
216831.774,21.484,21.973,35.645,26.367,-15.137,0
216831.777,20.508,29.297,36.621,39.551,-21.484,0
216831.781,23.438,28.320,25.879,39.062,-47.363,0
216831.785,38.086,31.738,32.715,40.039,-50.781,0
216831.789,42.480,38.086,23.926,41.504,-41.992,0
216831.793,33.203,36.621,19.531,29.785,-27.832,0
216831.797,27.344,28.809,33.203,28.809,32.715,0
216831.801,27.344,26.855,27.344,27.832,44.922,0
216831.805,28.320,27.344,25.391,25.879,60.059,0
216831.809,30.762,17.090,32.227,35.645,56.641,0
216831.813,35.645,24.414,36.133,36.133,25.879,0
216831.817,40.527,36.621,42.480,38.086,52.246,0
216831.820,33.691,23.438,43.457,39.551,44.922,0
216831.824,34.668,13.672,32.227,36.133,27.344,0
216831.828,44.922,28.320,25.391,41.504,18.555,0
216831.832,40.527,39.551,23.926,44.922,4.395,0
216831.836,35.156,40.527,27.832,47.363,44.434,0
216831.840,28.320,37.109,32.227,38.574,40.527,0
216831.844,28.809,28.320,35.645,28.320,11.719,0
216831.848,32.715,17.090,51.270,26.367,24.902,0
216831.852,29.785,21.484,55.176,29.297,24.414,0
216831.856,29.297,22.461,34.180,28.320,30.273,0
216831.860,34.180,14.648,23.438,21.484,53.711,0
216831.863,37.598,32.227,29.785,31.738,42.480,0
216831.867,41.016,47.363,31.250,41.992,2.930,0
216831.871,38.086,45.898,23.438,34.180,-9.277,0
216831.875,35.156,41.016,20.996,35.156,-7.324,0
216831.879,35.645,28.809,33.203,43.945,22.461,0
216831.883,29.785,20.508,42.969,43.457,38.086,0
216831.887,33.203,30.762,40.039,34.180,31.738,0
216831.891,47.852,33.203,32.715,25.879,17.090,0
216831.895,37.598,20.508,31.250,24.902,1.465,0
216831.899,28.320,18.066,42.969,31.738,55.664,0
216831.902,34.668,33.203,48.828,36.621,107.910,0
216831.906,33.691,38.574,37.109,40.039,54.199,0
216831.910,39.062,37.598,31.738,42.969,25.879,0
216831.914,35.645,38.086,34.668,35.156,75.684,0
216831.918,24.902,26.367,24.414,24.902,109.863,0
216831.922,31.738,28.809,19.043,32.715,99.121,0
216831.926,29.785,31.250,22.461,42.480,79.102,0
216831.930,27.344,23.438,28.809,32.227,70.801,0
216831.934,38.086,26.367,31.738,30.273,45.898,0
216831.938,34.180,18.066,25.879,36.621,39.062,0
216831.942,31.738,15.137,28.809,31.250,62.012,0
216831.945,29.785,20.996,31.250,33.203,63.477,0
216831.949,29.297,24.414,31.250,33.203,58.594,0
216831.953,30.762,26.855,39.551,28.320,53.711,0
216831.957,27.832,28.809,45.898,30.273,72.754,0
216831.961,26.367,28.809,34.180,30.273,63.965,0
216831.965,25.391,29.297,29.297,28.809,26.367,0
216831.969,26.367,25.879,34.668,26.367,62.988,1
216831.973,23.438,23.438,29.297,30.762,81.055,0
216831.977,25.391,26.855,28.809,36.621,53.711,0
216831.981,33.203,16.113,32.715,31.738,68.359,0
216831.985,34.180,4.395,42.969,24.902,-4.395,0
216831.988,34.668,6.348,47.363,38.574,-26.367,0
216831.992,36.133,17.578,31.250,41.016,38.574,0
216831.996,23.926,31.250,18.555,23.438,21.484,0
216832.000,19.043,39.062,23.438,24.902,12.207,0
216832.004,28.320,41.504,32.227,33.691,35.645,0
216832.008,29.785,31.250,24.414,28.320,28.809,0
216832.012,29.785,28.320,24.414,24.414,19.531,0
216832.016,31.738,30.273,28.320,30.273,56.641,0
216832.020,38.086,26.855,31.738,36.621,48.828,0
216832.024,47.363,25.879,34.668,42.480,21.484,0
216832.027,52.734,31.738,21.484,45.410,55.176,0
216832.031,56.641,26.855,24.414,51.270,63.965,0
216832.035,60.547,21.484,35.156,62.012,49.316,0
216832.039,51.270,31.738,27.344,44.434,11.719,0
216832.043,26.855,30.762,22.949,11.719,-36.621,0
216832.047,23.438,21.484,27.832,10.254,5.371,0
216832.051,30.273,25.879,24.414,17.090,40.039,0
216832.055,33.691,36.621,22.949,20.020,27.344,0
216832.059,45.898,40.527,33.691,32.715,31.250,0
216832.063,48.340,41.504,31.738,41.504,68.848,0
216832.067,35.156,35.156,23.926,33.691,72.266,0
216832.070,36.621,26.367,28.809,29.785,35.156,0
216832.074,45.410,22.461,38.086,34.668,45.898,0
216832.078,31.738,25.391,41.992,32.715,52.734,0
216832.082,25.391,34.180,33.691,25.879,31.250,0
216832.086,26.855,28.809,22.461,14.160,-11.719,0
216832.090,12.695,31.250,32.227,20.996,-28.809,0
216832.094,18.066,39.062,27.832,36.133,3.906,0
216832.098,40.039,32.715,18.555,28.809,-15.137,0
216832.102,39.551,25.879,26.367,17.578,-35.645,0
216832.106,27.832,25.391,26.367,21.484,-25.391,0
216832.110,31.250,30.273,31.738,38.086,-10.742,0
216832.113,27.344,34.668,38.086,37.598,30.273,0
216832.117,20.996,22.461,40.039,20.020,69.336,0
216832.121,28.320,20.020,39.062,16.602,79.102,0
216832.125,30.762,28.320,38.574,18.555,66.406,0
216832.129,27.832,26.367,32.715,21.973,54.199,0
216832.133,18.555,18.066,24.902,21.484,3.906,0
216832.137,29.297,16.602,22.461,25.879,39.062,0
216832.141,44.434,25.391,16.113,35.156,85.938,0
216832.145,35.645,40.527,16.602,42.480,45.898,0
216832.149,35.645,41.992,26.855,32.715,38.574,0
216832.152,41.992,31.738,46.387,23.438,33.203,0
216832.156,40.527,27.832,46.875,29.785,1.465,0
216832.160,42.969,26.367,36.621,31.250,-7.812,0
216832.164,42.480,26.855,25.879,30.273,26.855,0
216832.168,39.062,31.250,19.531,33.203,77.637,0
216832.172,42.969,26.367,20.996,35.156,82.520,0
216832.176,43.945,30.762,20.020,35.645,16.113,0
216832.180,54.199,46.875,24.902,41.992,5.859,0
216832.184,65.430,45.898,38.574,41.992,61.523,0
216832.188,57.129,32.715,38.574,46.875,57.129,0
216832.192,56.152,29.785,38.574,55.664,67.871,0
216832.195,46.875,29.297,32.227,43.457,39.551,0
216832.199,37.109,31.250,30.762,40.527,15.137,0
216832.203,33.691,35.645,31.738,40.527,48.828,0
216832.207,18.555,21.973,26.855,27.344,42.969,0
216832.211,20.996,15.625,26.855,26.367,32.715,0
216832.215,26.855,24.902,23.926,27.832,35.156,0
216832.219,29.297,22.949,20.020,26.367,44.922,0
216832.223,32.227,26.367,29.785,24.902,33.691,0
216832.227,38.574,37.109,53.223,34.668,54.199,0
216832.231,34.180,28.809,48.828,29.785,34.668,0
216832.235,32.715,21.484,33.691,20.508,16.602,0
216832.238,29.297,22.461,37.109,29.297,60.547,0
216832.242,10.254,8.301,38.574,17.578,82.031,0
216832.246,13.184,6.836,34.668,7.812,50.781,0
216832.250,20.508,10.254,34.668,20.020,-19.531,0
216832.254,13.672,10.742,21.973,31.250,1.953,0
216832.258,14.648,20.996,7.812,35.156,45.410,0
216832.262,30.273,31.250,25.391,32.227,29.785,0
216832.266,39.551,34.180,39.551,23.438,7.324,0
216832.270,32.227,27.832,34.668,19.043,-34.668,0
216832.274,34.668,27.832,34.668,28.809,-1.953,0
216832.277,41.992,37.598,41.016,32.227,23.926,0
216832.281,42.480,23.438,37.109,26.855,52.246,0
216832.285,41.992,14.160,35.156,21.973,38.574,0
216832.289,28.809,23.926,26.855,16.602,-7.812,0
216832.293,20.020,30.273,7.812,28.809,2.441,0
216832.297,25.391,26.855,16.602,34.180,15.137,0
216832.301,32.715,28.320,39.062,24.414,1.465,0
216832.305,35.645,37.598,40.039,29.785,9.277,0
216832.309,33.203,37.598,25.879,37.598,19.531,0
216832.313,33.691,32.715,35.645,29.785,-6.836,0
216832.317,30.273,26.367,43.457,17.090,39.062,0
216832.320,29.297,25.879,30.273,18.066,101.562,0
216832.324,34.180,29.297,33.691,23.438,81.543,0
216832.328,23.438,27.832,21.973,20.508,22.461,0
216832.332,14.648,23.926,12.695,14.648,42.969,0
216832.336,22.949,25.391,23.438,18.555,61.523,0
216832.340,25.879,32.227,30.762,31.250,54.688,0
216832.344,25.879,32.715,31.738,30.273,44.434,0
216832.348,34.180,33.203,43.457,27.832,16.113,0
216832.352,30.762,20.020,45.898,26.367,17.090,0
216832.356,42.480,24.902,41.992,27.832,-15.137,0
216832.360,51.758,41.016,46.387,33.691,6.348,0
216832.363,32.227,31.250,40.527,32.227,43.945,0
216832.367,16.602,32.227,31.738,23.438,7.812,0
216832.371,26.855,38.086,38.574,32.227,-20.020,0
216832.375,37.109,40.039,44.434,35.645,11.719,0
216832.379,28.809,32.227,42.969,41.992,54.688,0
216832.383,36.621,25.879,30.762,50.293,42.969,0
216832.387,40.039,36.133,28.320,41.016,27.832,0
216832.391,36.133,41.992,45.410,37.598,41.504,0
216832.395,37.109,45.898,49.316,36.133,33.203,0
216832.399,40.039,40.039,36.133,39.551,47.852,0
216832.402,37.109,35.156,38.574,41.992,66.406,0
216832.406,31.250,31.250,43.945,34.180,25.391,0
216832.410,33.203,28.320,34.668,35.156,17.090,0
216832.414,28.320,22.949,35.156,27.344,22.461,0
216832.418,26.855,15.137,41.992,19.043,8.789,0
216832.422,32.715,21.484,40.039,37.598,4.395,0
216832.426,27.344,23.926,35.156,52.734,-9.277,0
216832.430,24.414,25.391,32.227,47.852,5.371,0
216832.434,34.180,45.898,34.668,40.527,36.621,0
216832.438,44.922,61.523,38.574,53.223,62.012,0
216832.442,57.617,54.688,40.527,56.152,35.156,0
216832.445,44.922,36.621,42.480,38.574,29.297,0
216832.449,29.297,31.250,45.410,36.133,41.504,0
216832.453,32.227,28.809,46.387,37.598,9.766,0
216832.457,29.785,17.090,37.109,34.180,20.508,0
216832.461,27.344,10.742,24.902,29.297,-20.508,0
216832.465,29.785,22.461,24.902,35.645,6.836,0
216832.469,41.992,40.039,31.250,55.664,69.336,0
216832.473,57.129,46.387,43.457,54.199,60.059,0
216832.477,56.641,46.875,42.480,45.898,74.707,0
216832.481,42.480,46.875,34.180,38.574,33.691,0
216832.485,35.156,34.180,39.551,38.574,22.949,0
216832.488,37.109,21.973,31.738,39.551,26.855,0
216832.492,35.645,24.902,31.250,36.133,4.883,0
216832.496,37.109,23.926,42.480,37.598,21.973,0
216832.500,32.715,21.973,41.992,40.527,37.109,0
216832.504,29.785,27.344,40.039,39.551,16.113,0
216832.508,30.273,22.461,36.133,36.621,-8.789,0
216832.512,39.062,34.668,40.527,52.246,19.531,0
216832.516,53.711,51.270,47.852,61.523,41.992,0
216832.520,43.945,44.922,38.574,42.969,45.898,0
216832.524,40.039,39.551,28.809,44.922,64.941,0
216832.527,47.852,33.691,31.250,40.527,75.195,0
216832.531,33.203,23.438,34.668,21.973,46.387,0
216832.535,32.715,20.996,37.109,30.273,71.289,0
216832.539,37.598,21.484,35.645,37.109,93.262,0
216832.543,24.902,21.484,44.922,34.668,53.711,0
216832.547,25.879,23.438,40.039,35.645,47.363,0
216832.551,49.316,36.133,41.504,50.293,37.109,0
216832.555,44.922,30.762,47.852,49.316,60.059,0
216832.559,29.297,13.184,30.273,28.320,78.125,0
216832.563,34.668,28.809,23.926,26.855,51.270,0
216832.567,27.344,34.180,26.367,24.414,43.457,0
216832.570,35.156,35.645,21.973,30.762,60.547,0
216832.574,51.270,41.016,24.414,45.898,78.613,0
216832.578,36.133,36.133,37.598,49.805,73.242,0
216832.582,29.785,37.109,42.969,52.734,57.617,0
216832.586,32.227,30.273,32.227,44.434,49.316,0
216832.590,39.551,28.809,33.691,37.598,37.109,0
216832.594,49.316,25.391,43.945,37.109,21.484,0
216832.598,36.621,23.926,35.156,36.621,24.414,2
216832.602,40.527,33.203,20.996,47.852,71.777,0
216832.606,44.922,27.344,21.973,43.457,88.867,0
216832.610,30.762,20.508,23.926,30.273,21.484,0
216832.613,29.297,23.926,34.668,30.762,-35.156,0
216832.617,33.691,29.297,44.434,38.574,10.742,0
216832.621,30.273,22.949,41.016,33.691,18.555,0
216832.625,19.531,20.508,37.109,32.227,-4.395,0
216832.629,19.531,20.020,35.645,42.480,35.156,0
216832.633,27.344,25.391,36.133,41.992,69.336,0
216832.637,24.902,38.086,34.668,43.457,80.566,0
216832.641,23.926,24.414,24.414,39.062,51.758,0
216832.645,31.738,9.766,19.531,27.832,28.320,0
216832.649,32.715,22.461,32.227,31.250,61.035,0
216832.652,29.297,36.621,41.504,28.809,66.406,0
216832.656,31.250,28.320,52.246,18.066,39.551,0
216832.660,24.414,17.578,47.852,15.137,20.508,0
216832.664,22.949,24.902,35.156,23.926,62.500,0
216832.668,34.668,31.738,39.062,37.598,38.086,0
216832.672,50.293,38.574,52.246,42.480,1.953,0
216832.676,53.711,42.480,34.668,52.734,25.879,0
216832.680,43.457,36.621,12.695,55.664,27.344,0
216832.684,31.738,20.508,23.926,34.668,24.902,0
216832.688,28.809,18.066,43.945,24.902,19.531,0
216832.692,39.062,36.133,49.316,30.273,36.133,0
216832.695,40.527,40.039,40.039,29.785,54.199,0
216832.699,26.367,26.855,39.062,19.043,39.062,0
216832.703,33.203,29.785,45.410,18.555,39.551,0
216832.707,48.828,40.039,49.805,34.668,65.918,0
216832.711,59.570,40.039,33.691,41.504,17.578,0
216832.715,52.734,40.039,18.555,36.621,4.395,0
216832.719,31.738,36.621,24.902,42.480,26.855,0
216832.723,29.297,30.762,31.250,42.480,6.836,0
216832.727,29.297,26.855,26.855,35.156,11.719,0
216832.731,30.273,26.367,31.738,31.738,-10.254,0
216832.735,29.785,25.391,40.527,22.461,-41.504,0
216832.738,22.461,20.020,48.828,21.973,18.555,0
216832.742,42.969,24.414,49.316,48.828,17.578,0
216832.746,45.898,27.832,28.320,39.062,-55.664,0
216832.750,27.832,26.855,18.066,13.672,-41.992,0
216832.754,26.855,29.297,30.273,22.461,6.836,0
216832.758,33.203,26.855,38.574,31.738,35.156,0
216832.762,47.852,29.297,36.133,48.340,30.273,0
216832.766,49.805,33.203,28.320,57.129,31.738,0
216832.770,47.852,35.645,35.645,42.969,40.039,0
216832.774,52.246,37.109,49.316,34.180,44.922,0
216832.777,46.387,30.762,44.922,33.691,10.254,0
216832.781,34.180,19.043,33.203,29.785,9.766,0
216832.785,36.133,16.113,33.203,28.809,55.176,0
216832.789,35.156,16.602,31.738,26.855,34.180,0
216832.793,25.879,12.695,42.480,22.949,-0.488,0
216832.797,31.250,15.625,40.527,34.668,35.645,0
216832.801,37.109,21.484,24.414,55.664,64.453,0
216832.805,34.668,33.691,27.832,49.805,36.621,0
216832.809,31.738,40.039,44.434,31.738,68.848,0
216832.813,30.273,33.203,47.852,21.484,103.027,0
216832.817,29.297,29.297,34.668,17.090,62.988,0
216832.820,33.203,28.809,33.691,29.785,35.156,0
216832.824,47.852,29.785,38.086,44.922,68.359,0
216832.828,46.875,28.320,38.574,49.316,41.016,0
216832.832,35.645,18.555,34.180,48.828,32.227,0
216832.836,45.410,22.949,20.996,47.852,19.043,0
216832.840,41.504,35.156,25.879,41.504,-2.441,0
216832.844,28.809,38.086,31.738,34.180,17.090,0
216832.848,34.180,38.574,28.320,42.480,32.227,0
216832.852,38.086,31.250,42.480,41.992,28.320,0
216832.856,32.715,20.996,43.945,20.996,19.531,0
216832.860,37.598,26.855,41.504,28.809,25.879,0
216832.863,43.945,43.945,43.945,33.691,31.250,0
216832.867,34.180,42.480,29.785,22.949,50.293,0
216832.871,33.691,34.668,22.949,28.809,41.992,0
216832.875,41.016,31.738,31.250,27.832,46.875,0
216832.879,33.203,30.273,29.297,24.414,37.598,0
216832.883,19.531,28.320,26.855,27.344,31.250,0
216832.887,18.066,23.926,35.645,25.391,49.805,0
216832.891,25.391,29.297,38.574,25.879,59.082,0
216832.895,27.832,43.945,39.551,33.203,62.012,0
216832.899,25.391,46.387,43.945,29.785,42.969,0
216832.902,21.973,41.016,48.828,21.973,54.199,0
216832.906,17.578,33.691,51.270,18.555,61.035,0
216832.910,14.160,34.180,51.270,13.184,7.812,0
216832.914,17.578,33.691,38.086,7.324,-1.465,0
216832.918,14.160,33.691,26.855,1.953,8.301,0
216832.922,11.719,39.062,38.086,14.648,-6.836,0
216832.926,4.395,39.062,41.016,9.766,-22.461,0
216832.930,-27.832,44.922,33.691,-27.832,2.441,0
216832.934,-41.016,45.410,37.109,-41.016,48.340,0
216832.938,-37.598,47.852,44.922,-39.551,39.062,0
216832.942,-40.527,59.570,44.922,-33.203,21.484,0
216832.945,-39.062,62.500,44.922,-37.598,41.016,0
216832.949,-61.035,59.570,37.598,-72.754,55.664,0
216832.953,-82.031,65.430,27.832,-93.750,71.777,0
216832.957,-95.703,69.824,27.832,-101.074,82.031,0
216832.961,-106.934,63.965,39.551,-119.141,54.199,0
216832.965,-108.887,65.918,51.270,-120.605,46.387,0
216832.969,-126.953,73.242,39.062,-125.488,30.762,0
216832.973,-128.418,83.008,37.109,-128.418,-2.441,0
216832.977,-124.023,74.707,45.410,-119.629,17.090,0
216832.981,-130.371,62.500,38.574,-120.117,32.227,0
216832.985,-130.371,62.012,35.156,-125.488,3.418,0
216832.988,-124.023,56.641,32.227,-130.371,-0.977,0
216832.992,-119.629,59.082,40.039,-132.812,43.945,0
216832.996,-96.680,75.195,45.898,-108.398,46.875,0
216833.000,-71.289,73.730,37.598,-82.031,50.293,0
216833.004,-75.684,59.570,30.762,-91.797,51.270,0
216833.008,-68.359,63.477,29.785,-81.543,36.621,0
216833.012,-63.477,61.523,24.902,-58.105,-2.930,0
216833.016,-75.195,55.176,25.391,-72.754,-28.809,0
216833.020,-70.312,55.664,33.691,-79.590,-2.441,0
216833.024,-53.711,51.270,38.574,-55.664,36.133,0
216833.027,-37.109,46.387,44.922,-31.738,33.203,0
216833.031,-27.344,39.062,44.434,-19.531,26.855,0
216833.035,-20.508,33.203,27.344,-13.184,30.762,0
216833.039,-10.254,29.785,19.043,-5.859,42.480,0
216833.043,-6.348,24.902,15.625,-12.207,55.176,0
216833.047,14.648,36.621,7.812,5.859,48.828,0
216833.051,24.902,42.969,18.066,20.996,16.602,0
216833.055,20.508,31.250,21.973,19.531,36.621,0
216833.059,41.504,30.762,24.902,27.832,43.457,0
216833.063,48.340,39.062,41.016,33.691,-4.883,0
216833.067,33.203,32.227,43.945,39.062,-10.742,0
216833.070,39.062,21.973,31.738,41.504,24.902,0
216833.074,50.781,24.902,23.926,42.969,40.039,0
216833.078,60.547,16.602,25.391,51.758,42.480,0
216833.082,57.617,0.488,21.973,57.129,57.129,0
216833.086,44.434,0.977,15.137,58.105,46.875,0
216833.090,44.922,17.090,5.371,60.059,28.809,0
216833.094,53.711,22.461,11.230,66.406,2.441,0
216833.098,60.547,6.348,22.949,74.707,25.879,0
216833.102,66.895,13.672,21.973,78.125,14.160,0
216833.106,70.312,28.320,28.809,80.566,2.441,0
216833.110,76.172,16.113,34.668,76.660,21.973,0
216833.113,66.406,5.371,28.320,70.312,15.625,0
216833.117,75.684,14.160,28.809,74.219,51.270,0
216833.121,87.402,21.484,36.133,71.777,45.410,0
216833.125,67.871,7.812,26.855,68.359,9.277,0
216833.129,70.312,2.930,15.137,79.590,31.738,0
216833.133,77.148,8.789,13.184,81.055,49.316,0
216833.137,73.730,4.395,16.602,83.496,20.508,0
216833.141,78.613,-2.930,20.996,88.867,14.648,0
216833.145,88.379,-2.930,25.391,84.961,31.250,0
216833.149,91.309,0.488,28.809,86.914,49.805,0
216833.152,82.031,5.371,32.227,88.379,21.484,2
216833.156,82.520,9.766,37.598,98.633,19.531,0
216833.160,96.680,16.602,38.574,101.562,63.965,0
216833.164,95.703,19.531,29.297,81.543,44.922,0
216833.168,79.590,9.766,21.484,69.336,21.973,0
216833.172,71.777,9.277,23.438,75.684,57.129,0
216833.176,69.336,7.812,20.508,80.566,63.965,0
216833.180,78.613,3.906,20.020,86.914,44.922,0
216833.184,88.867,10.742,34.668,100.586,35.156,0
216833.188,85.449,8.789,38.574,98.633,17.578,0
216833.192,74.707,10.742,34.668,81.055,12.695,0
216833.195,68.848,16.602,43.457,73.730,-17.090,0
216833.199,65.918,13.184,39.551,71.777,-14.160,0
216833.203,74.219,8.301,33.691,74.219,58.105,0
216833.207,83.008,14.648,37.598,86.426,59.570,0
216833.211,70.801,14.648,25.391,77.637,-2.441,0
216833.215,65.430,8.301,16.602,67.871,0.977,0
216833.219,72.266,12.695,11.230,76.172,46.875,0
216833.223,68.359,8.301,14.648,76.172,57.129,0
216833.227,65.918,6.348,27.832,70.801,68.359,0
216833.231,65.918,13.184,38.086,65.430,52.734,0
216833.235,54.199,9.277,40.039,62.012,43.457,0
216833.238,58.105,14.160,41.016,71.289,53.223,0
216833.242,72.754,30.273,41.016,79.102,24.902,0
216833.246,82.031,32.715,33.203,79.590,-0.977,0
216833.250,76.660,26.367,25.391,71.777,10.254,0
216833.254,65.430,18.066,20.020,60.547,-11.719,0
216833.258,64.453,13.672,31.738,60.547,-36.133,0
216833.262,59.082,16.113,47.852,63.965,24.414,0
216833.266,57.129,12.207,48.828,59.570,49.316,0
216833.270,59.082,16.602,51.758,57.617,20.996,0
216833.274,62.012,27.344,54.199,63.477,24.902,0
216833.277,52.734,13.184,31.738,57.129,16.602,0
216833.281,56.152,13.672,20.020,60.059,15.625,0
216833.285,63.965,31.250,41.016,67.871,35.645,0
216833.289,46.387,28.809,46.387,59.082,19.043,0
216833.293,43.945,23.926,37.598,57.617,10.254,0
216833.297,56.152,24.414,36.133,54.199,28.809,0
216833.301,56.152,18.555,31.250,52.734,17.578,0
216833.305,58.594,15.625,27.344,54.199,16.113,0
216833.309,67.871,14.648,34.668,75.684,42.480,0
216833.313,63.965,27.832,42.969,83.008,45.898,0
216833.317,62.500,41.016,44.434,65.918,29.297,0
216833.320,69.824,28.809,46.875,63.477,30.273,0
216833.324,64.941,11.230,43.457,65.918,27.344,0
216833.328,56.152,19.531,34.668,62.012,42.969,0
216833.332,54.199,28.320,28.809,58.594,83.008,0
216833.336,50.781,18.066,20.508,56.152,69.824,0
216833.340,55.176,17.578,29.785,57.129,80.078,0
216833.344,55.664,24.414,36.621,53.223,78.613,0
216833.348,52.734,25.391,31.250,48.828,44.922,0
216833.352,50.781,27.344,27.344,52.734,64.941,0
216833.356,50.293,32.227,27.832,70.801,82.520,0
216833.360,59.570,38.574,38.086,73.730,48.828,0
216833.363,58.105,26.367,40.039,48.828,3.906,0
216833.367,54.199,14.648,26.855,51.758,11.719,0
216833.371,46.387,18.555,24.414,52.246,52.246,0
216833.375,35.645,20.996,30.762,43.457,76.172,0
216833.379,41.504,26.855,37.109,48.828,61.035,0
216833.383,50.293,27.832,34.668,48.828,39.551,0
216833.387,55.176,25.879,29.785,52.246,37.598,0
216833.391,58.105,23.926,29.297,57.129,-16.113,0
216833.395,54.199,30.273,23.926,50.293,-7.812,0
216833.399,47.852,30.762,29.785,55.664,62.012,0
216833.402,53.711,20.508,33.203,60.059,53.711,0
216833.406,51.270,25.391,40.527,55.664,41.016,0
216833.410,47.852,31.250,33.691,52.734,34.668,0
216833.414,54.688,32.227,20.996,43.457,75.195,0
216833.418,54.199,31.738,27.344,45.898,68.359,0
216833.422,57.129,26.855,24.902,54.199,16.113,0
216833.426,56.641,25.391,20.996,56.152,51.270,0
216833.430,42.969,22.461,21.484,46.875,85.938,0
216833.434,41.504,20.020,32.227,36.133,61.035,0
216833.438,41.016,11.230,41.992,33.691,13.184,0
216833.442,37.598,7.812,42.480,34.180,12.207,0
216833.445,43.457,23.926,27.344,34.668,38.086,0
216833.449,50.781,31.738,18.066,34.668,24.902,0
216833.453,59.570,32.715,28.809,41.016,13.184,0
216833.457,53.223,38.574,31.738,45.410,41.016,0
216833.461,45.898,46.387,29.297,51.270,33.691,0
216833.465,46.875,38.574,20.996,46.387,22.461,0
216833.469,40.039,5.859,12.695,33.691,34.180,0
216833.473,35.156,6.348,21.973,35.156,46.387,0
216833.477,29.785,32.715,37.109,38.086,36.133,0
216833.481,32.715,34.180,32.715,34.180,-27.344,0
216833.485,37.109,28.320,13.672,29.297,-32.227,0
216833.488,31.250,28.809,20.996,30.273,0.488,0
216833.492,32.715,25.879,38.574,41.016,27.832,0
216833.496,29.785,20.508,24.902,33.203,-1.465,0
216833.500,32.715,30.273,19.531,29.297,-23.438,0
216833.504,37.598,37.109,27.344,37.109,50.781,0
216833.508,29.297,24.414,31.250,35.645,51.270,0
216833.512,28.809,20.020,35.156,40.527,-4.395,0
216833.516,27.832,17.578,36.621,40.039,14.648,0
216833.520,28.320,7.812,25.879,33.203,44.434,0
216833.524,36.621,14.160,12.207,36.133,54.199,0
216833.527,35.156,25.391,12.207,38.086,48.828,0
216833.531,41.504,33.203,28.809,41.992,8.789,0
216833.535,41.992,33.203,33.691,47.363,4.395,0
216833.539,34.180,23.438,22.461,43.457,-1.465,0
216833.543,31.738,20.020,18.555,33.691,-20.508,0
216833.547,31.738,17.090,28.809,24.902,0.977,0
216833.551,30.273,21.484,45.410,33.691,18.555,0
216833.555,32.715,29.297,48.828,42.969,20.508,0
216833.559,31.738,32.227,33.691,33.691,14.648,0
216833.563,25.391,24.414,27.832,27.832,41.992,0
216833.567,28.320,19.531,34.180,33.691,34.180,0
216833.570,31.250,27.344,33.203,47.363,7.812,0
216833.574,29.297,32.715,20.996,50.293,5.371,0
216833.578,27.832,35.645,4.883,40.039,4.395,0
216833.582,33.691,38.086,16.602,41.992,20.508,0
216833.586,28.320,32.227,33.691,26.855,-1.465,0
216833.590,21.973,10.742,29.785,12.695,7.812,0
216833.594,23.926,-0.977,33.203,29.785,39.062,0
216833.598,26.855,18.066,41.016,31.250,41.016,0
216833.602,33.691,33.691,36.133,27.344,39.062,0
216833.606,36.621,34.668,28.809,34.668,45.410,0
216833.610,36.621,33.203,18.066,34.180,64.941,0
216833.613,41.504,34.668,6.836,37.109,47.852,0
216833.617,45.898,32.227,11.230,43.457,42.480,0
216833.621,50.293,31.250,17.090,30.762,55.176,0
216833.625,43.457,37.109,27.832,27.832,15.137,0
216833.629,36.621,38.086,46.387,29.785,-20.508,0
216833.633,28.809,25.391,39.062,11.719,-13.672,0
216833.637,20.508,20.996,29.297,15.625,-1.465,0
216833.641,23.438,19.531,29.297,25.391,-11.719,0
216833.645,26.367,25.391,22.461,28.320,-9.277,0
216833.649,28.320,34.668,17.090,33.203,-6.348,0
216833.652,38.086,28.320,18.555,38.574,22.949,0
216833.656,53.223,25.879,30.273,45.410,53.223,0
216833.660,45.410,34.668,44.434,42.969,33.203,0
216833.664,30.273,36.133,49.316,35.645,42.480,0
216833.668,36.133,29.785,48.340,25.391,77.637,0
216833.672,46.875,33.203,44.434,37.109,71.777,0
216833.676,42.480,42.480,41.504,45.898,71.777,0
216833.680,31.738,34.180,31.738,26.855,29.297,0
216833.684,26.367,27.832,25.879,24.414,22.949,0
216833.688,28.320,30.273,33.691,31.738,53.223,0
216833.692,28.320,21.973,37.109,37.109,31.250,0
216833.695,32.227,18.066,34.180,43.945,64.941,0
216833.699,40.039,19.531,28.320,50.293,80.078,0
216833.703,37.598,23.438,26.855,53.223,61.035,0
216833.707,45.410,29.785,31.250,51.270,53.711,0
216833.711,45.410,37.109,35.156,41.992,49.805,0
216833.715,44.434,39.551,37.109,30.762,41.992,0
216833.719,49.805,30.762,32.715,29.297,2.930,0
216833.723,45.410,26.855,41.504,31.738,-4.395,0
216833.727,39.062,24.902,38.574,36.133,-4.883,0
216833.731,26.855,24.902,22.949,39.551,25.879,0
216833.735,25.391,25.879,25.391,37.109,68.848,0
216833.738,22.949,28.320,27.832,25.391,34.180,0
216833.742,17.090,24.902,31.250,21.973,-3.906,0
216833.746,23.926,20.508,38.086,26.855,20.996,0
216833.750,30.762,26.367,39.062,31.738,35.156,0
216833.754,29.785,30.273,33.691,33.691,57.129,0
216833.758,28.809,31.738,29.785,25.391,41.016,0
216833.762,30.762,29.297,27.344,19.531,7.812,0
216833.766,30.762,30.273,29.785,23.926,-23.438,0
216833.770,41.016,27.344,30.273,34.668,-15.625,0
216833.774,36.133,18.555,23.926,40.527,49.316,0
216833.777,26.855,21.973,20.996,34.668,52.246,0
216833.781,22.949,19.531,25.879,30.762,21.973,0
216833.785,22.949,21.484,37.109,32.715,26.367,0
216833.789,29.297,27.832,38.574,35.645,24.414,0
216833.793,27.344,19.531,21.484,40.527,-8.301,0
216833.797,38.086,29.297,12.207,51.758,27.344,0
216833.801,50.293,43.457,24.414,41.016,54.199,0
216833.805,41.016,32.227,33.203,19.043,6.836,0
216833.809,29.297,22.949,30.273,11.230,-20.508,0
216833.813,21.973,25.391,36.621,9.766,-10.742,0
216833.817,29.785,24.902,37.598,20.508,13.184,0
216833.820,40.039,32.227,33.203,33.203,48.340,0
216833.824,32.715,37.109,34.180,26.855,25.391,0
216833.828,26.855,29.785,23.926,17.090,26.855,0
216833.832,28.320,23.926,14.648,25.879,66.895,0
216833.836,41.504,29.785,27.344,48.828,79.590,0
216833.840,47.363,24.902,41.016,44.434,60.059,0
216833.844,30.762,5.371,35.645,15.625,11.230,0
216833.848,26.855,15.625,34.668,25.879,24.414,0
216833.852,34.668,35.645,31.738,31.250,3.418,0
216833.856,31.250,31.250,25.879,15.137,-36.133,0
216833.860,25.391,30.762,36.621,22.461,7.812,2
216833.863,27.832,28.320,41.016,37.598,10.742,0
216833.867,20.996,16.113,34.668,33.691,4.395,0
216833.871,19.043,15.137,26.855,20.020,-15.137,0
216833.875,25.391,15.137,30.762,31.250,-51.758,0
216833.879,23.438,12.207,37.598,41.992,-11.719,0
216833.883,23.926,23.926,29.297,26.367,24.902,0
216833.887,26.367,23.926,25.879,22.461,51.758,0
216833.891,30.762,14.648,26.367,34.668,20.020,0
216833.895,43.457,21.973,29.297,46.387,20.508,0
216833.899,57.129,41.992,30.762,54.199,26.367,0
216833.902,49.805,45.410,26.367,50.293,6.348,0
216833.906,35.156,32.715,34.180,36.621,31.250,0
216833.910,36.133,23.438,47.363,43.945,34.668,0
216833.914,41.504,20.996,41.992,44.434,38.574,0
216833.918,31.738,19.531,20.996,18.555,27.832,0
216833.922,20.508,20.508,18.066,18.555,49.805,0
216833.926,23.926,22.949,26.367,23.926,67.383,0
216833.930,23.926,27.344,22.949,22.461,59.082,0
216833.934,24.902,24.902,20.508,27.344,92.285,0
216833.938,36.621,15.625,26.855,40.039,68.359,0
216833.942,35.645,20.020,38.086,43.945,62.988,0
216833.945,24.902,25.879,38.086,29.297,68.359,0
216833.949,31.250,25.879,36.621,34.668,69.824,0
216833.953,36.621,30.762,47.852,45.898,87.891,0
216833.957,32.715,27.832,33.691,34.668,70.801,0
216833.961,32.227,22.461,14.160,31.738,25.391,0
216833.965,32.227,21.484,10.742,36.621,27.832,0
216833.969,27.832,26.855,11.719,34.180,41.992,0
216833.973,24.902,27.832,25.879,30.273,45.410,0
216833.977,34.180,25.879,32.227,29.785,24.414,0
216833.981,43.945,24.902,33.203,33.691,42.480,0
216833.985,34.668,20.020,31.250,32.715,73.242,0
216833.988,34.180,26.367,33.691,28.320,62.012,0
216833.992,48.828,35.645,47.363,35.645,43.945,0
216833.996,31.250,29.297,44.434,40.039,25.391,0
216834.000,20.996,25.391,30.762,38.086,53.223,0
216834.004,33.203,29.297,21.973,29.785,62.988,0
216834.008,29.785,22.461,11.719,15.625,20.508,0
216834.012,29.297,18.555,14.648,21.484,47.852,0
216834.016,35.156,22.949,22.949,32.715,62.012,0
216834.020,32.227,24.902,24.902,26.855,17.578,0
216834.024,27.344,23.926,32.227,28.320,23.438,0
216834.027,33.203,21.484,29.297,31.250,36.133,0
216834.031,46.875,30.273,34.180,45.410,2.930,0
216834.035,44.922,38.574,40.527,50.781,-15.137,0
216834.039,24.902,31.738,25.879,25.879,-10.742,0
216834.043,20.020,28.320,20.508,29.785,0.977,0
216834.047,34.180,33.203,24.414,53.223,19.531,0
216834.051,41.504,29.785,21.484,39.551,-20.996,0
216834.055,44.434,20.508,16.113,19.531,-46.387,0
216834.059,39.062,20.020,23.438,25.391,1.953,0
216834.063,26.367,29.785,39.062,27.832,-8.301,0
216834.067,33.203,32.227,46.875,31.738,-40.527,0
216834.070,43.945,34.668,36.621,40.039,-11.719,0
216834.074,37.598,34.668,33.691,39.062,16.113,0
216834.078,29.785,25.391,40.039,41.504,28.320,0
216834.082,25.391,20.020,35.645,34.180,15.137,0
216834.086,31.738,21.484,34.180,35.645,16.113,0
216834.090,41.992,29.785,30.762,47.363,34.668,0
216834.094,49.316,42.969,30.762,41.504,2.930,0
216834.098,44.922,38.086,41.992,32.715,-33.691,0
216834.102,32.715,29.785,44.434,28.809,-23.926,0
216834.106,29.785,28.320,33.691,31.250,30.762,0
216834.110,29.297,28.320,28.809,33.691,24.902,0
216834.113,33.691,36.133,24.902,42.480,-10.254,0
216834.117,36.621,43.457,22.461,52.246,-26.367,0
216834.121,35.156,39.062,31.250,43.945,-56.641,0
216834.125,30.273,23.438,39.062,36.133,-11.230,0
216834.129,21.484,31.250,40.039,33.691,30.273,0
216834.133,20.996,35.645,39.062,35.645,18.066,0
216834.137,22.949,24.902,35.645,28.809,-7.324,0
216834.141,32.227,27.832,37.598,24.902,-37.598,0
216834.145,44.922,29.785,32.227,38.086,-15.137,0
216834.149,41.992,26.367,18.066,41.504,5.371,0
216834.152,35.645,33.203,20.996,40.039,3.418,0
216834.156,40.039,43.457,34.668,41.992,11.719,0
216834.160,31.250,35.645,37.109,28.320,29.785,0
216834.164,28.809,17.578,39.551,17.578,58.105,0
216834.168,32.715,12.207,37.109,17.090,60.059,0
216834.172,32.715,27.344,30.762,28.809,98.145,0
216834.176,40.527,36.621,36.133,48.340,86.914,0
216834.180,40.527,29.785,31.250,51.270,64.941,0
216834.184,34.668,27.832,23.926,40.527,77.148,0
216834.188,37.109,31.250,23.438,32.715,38.574,0
216834.192,40.039,34.180,34.180,46.875,46.387,0
216834.195,39.062,28.320,43.945,45.410,74.707,0
216834.199,28.809,25.391,34.180,32.227,47.363,0
216834.203,25.391,26.855,16.602,35.645,32.227,0
216834.207,33.691,17.578,20.996,33.691,37.598,0
216834.211,42.969,27.832,42.480,28.809,38.086,0
216834.215,40.039,41.992,40.527,33.691,59.570,0
216834.219,25.879,35.156,23.926,36.621,65.430,0
216834.223,25.879,20.996,27.832,30.762,86.914,0
216834.227,33.691,18.066,44.922,30.273,102.051,0
216834.231,27.832,18.066,44.434,25.391,58.594,0
216834.235,18.066,18.555,37.598,24.414,25.879,0
216834.238,26.855,28.320,36.133,34.668,23.438,0
216834.242,37.109,33.203,27.344,36.621,0.488,0
216834.246,31.738,30.762,22.949,29.297,-23.438,0
216834.250,37.598,30.762,34.180,31.738,-0.488,0
216834.254,44.922,36.133,27.832,40.039,16.113,0
216834.258,27.832,28.320,25.879,34.668,-11.230,0
216834.262,14.160,25.391,37.109,25.391,-4.883,0
216834.266,16.113,19.043,36.133,22.461,40.527,0
216834.270,26.855,11.719,32.715,26.367,41.504,0
216834.274,31.738,20.508,29.785,27.832,14.648,0
216834.277,41.016,27.344,24.902,33.203,21.973,0
216834.281,35.156,26.855,20.508,37.598,2.930,0
216834.285,28.809,23.926,20.996,37.109,-1.465,0
216834.289,39.551,30.762,34.180,41.016,3.418,0
216834.293,40.527,32.715,37.109,37.109,-19.043,0
216834.297,37.109,27.832,37.109,37.598,61.523,0
216834.301,38.574,23.438,41.504,36.133,120.117,0
216834.305,34.180,18.066,40.039,33.203,64.453,0
216834.309,31.738,22.949,26.855,47.363,74.707,0
216834.313,31.738,23.926,17.090,42.969,81.055,0
216834.317,30.273,17.578,31.250,29.785,36.621,0
216834.320,28.809,25.879,36.133,31.250,48.828,0
216834.324,25.879,34.668,26.367,33.691,62.988,0
216834.328,22.461,29.297,23.438,34.180,47.852,0
216834.332,20.020,19.043,25.879,28.809,20.996,0
216834.336,27.344,8.301,27.344,17.090,-17.578,0
216834.340,34.180,23.438,41.016,28.320,15.137,0
216834.344,31.250,43.945,42.480,50.781,58.105,0
216834.348,29.297,33.691,22.949,41.016,52.734,0
216834.352,24.902,23.926,24.902,21.973,52.246,0
216834.356,16.602,18.555,34.180,23.438,64.941,0
216834.360,28.320,26.367,30.273,36.621,50.781,0
216834.363,50.293,35.156,31.738,42.969,34.180,0
216834.367,46.875,31.250,26.367,39.551,33.203,0
216834.371,25.879,21.484,23.438,26.367,34.180,0
216834.375,16.113,19.043,32.227,18.066,33.203,0
216834.379,32.227,36.621,37.598,25.391,35.156,0
216834.383,37.598,41.016,31.250,25.391,39.062,0
216834.387,29.297,26.855,14.648,21.973,67.871,0
216834.391,45.410,28.809,17.090,41.016,80.566,0
216834.395,57.129,41.016,35.645,56.152,62.988,0
216834.399,42.480,32.227,41.504,42.480,41.504,0
216834.402,30.762,16.602,23.926,42.969,11.230,0
216834.406,30.273,11.719,10.254,40.527,46.387,0
216834.410,22.949,16.602,14.648,23.926,74.219,0
216834.414,21.973,17.578,18.555,22.949,39.062,0
216834.418,36.133,18.066,31.738,29.785,14.648,0
216834.422,36.621,28.320,46.387,30.762,35.156,0
216834.426,31.738,22.949,34.180,25.879,42.480,0
216834.430,34.668,19.043,18.555,29.297,46.875,0
216834.434,45.898,41.992,26.855,44.922,75.195,0
216834.438,53.711,44.434,33.203,46.387,42.969,0
216834.442,31.250,27.344,28.809,28.809,10.742,0
216834.445,17.090,21.973,31.738,25.391,65.430,0
216834.449,25.879,17.578,36.133,28.320,96.191,0
216834.453,29.785,20.996,35.645,33.203,51.758,0
216834.457,28.809,25.391,37.109,42.969,28.809,0
216834.461,31.738,24.414,30.273,37.109,50.781,0
216834.465,38.574,28.320,21.973,36.133,38.574,0
216834.469,44.922,27.344,23.926,41.016,19.043,0
216834.473,46.875,24.414,25.391,29.785,36.133,0
216834.477,45.898,36.133,37.109,37.598,59.082,0
216834.481,46.387,37.598,46.875,44.922,71.777,0
216834.485,43.457,28.809,35.156,34.180,39.551,0
216834.488,38.086,21.973,27.344,30.273,50.293,0
216834.492,39.551,16.113,39.551,28.320,58.105,0
216834.496,29.785,20.508,35.645,30.762,1.465,0
216834.500,25.391,30.762,20.020,27.832,-11.719,0
216834.504,25.879,23.926,26.367,22.949,-20.508,0
216834.508,24.414,6.836,28.320,27.832,20.996,0
216834.512,29.297,22.461,34.668,36.133,51.758,0
216834.516,40.039,47.852,48.828,48.340,12.207,0
216834.520,38.574,37.109,39.551,42.480,11.230,0
216834.524,33.203,30.273,34.668,32.715,14.648,0
216834.527,39.551,38.086,29.297,39.551,-16.602,0
216834.531,41.992,29.785,16.602,32.715,-1.953,0
216834.535,43.945,23.438,22.949,26.367,-5.859,0
216834.539,32.227,26.855,25.879,37.109,-19.531,0
216834.543,21.484,26.855,19.043,40.039,-13.184,0
216834.547,27.832,22.949,29.297,29.297,-25.879,0
216834.551,30.273,25.391,50.781,28.320,-23.438,0
216834.555,37.109,37.109,53.711,36.621,-12.695,0
216834.559,39.551,37.598,39.551,34.668,3.906,0
216834.563,36.133,31.738,36.621,28.809,-7.324,0
216834.567,41.992,33.203,34.180,37.598,11.230,2
216834.570,44.434,32.227,34.180,46.875,41.992,0
216834.574,51.270,38.086,41.992,62.012,21.484,0
216834.578,61.523,44.434,31.738,62.012,7.324,0
216834.582,50.781,28.320,24.902,43.945,34.668,0
216834.586,37.598,12.207,37.109,37.598,78.613,0
216834.590,36.133,21.484,41.504,29.785,38.086,0
216834.594,34.668,33.203,41.992,36.621,45.410,0
216834.598,38.574,27.832,37.598,42.969,67.871,0
216834.602,25.879,10.254,33.203,29.297,27.832,0
216834.606,21.973,18.066,38.574,33.203,41.504,0
216834.610,45.410,49.316,50.781,46.875,20.996,0
216834.613,51.758,53.223,46.387,49.805,2.930,0
216834.617,36.133,40.039,28.320,45.898,41.016,0
216834.621,28.809,33.203,29.785,43.457,69.824,0
216834.625,34.668,32.715,49.316,41.992,67.871,0
216834.629,27.832,30.273,51.270,34.668,78.613,0
216834.633,20.996,27.832,42.480,41.016,59.082,0
216834.637,32.227,23.438,30.273,46.875,40.039,0
216834.641,44.434,16.113,23.926,45.410,90.332,0
216834.645,35.645,21.973,23.926,47.852,92.285,0
216834.649,37.109,33.203,24.414,44.922,63.965,0
216834.652,52.246,43.457,39.062,42.480,42.480,0
216834.656,42.480,39.551,37.598,52.734,26.367,0
216834.660,31.738,27.344,32.227,43.457,48.828,0
216834.664,33.691,27.832,36.133,20.508,58.105,0
216834.668,46.387,35.156,43.457,30.273,22.949,0
216834.672,47.852,37.598,44.922,44.922,-6.348,0
216834.676,36.133,31.738,27.832,44.922,6.836,0
216834.680,26.855,17.090,26.855,44.434,0.977,0
216834.684,37.109,19.043,35.156,48.828,-29.297,0
216834.688,48.340,36.621,35.645,54.688,-18.555,0
216834.692,47.363,34.668,36.621,52.734,-6.348,0
216834.695,42.969,29.297,33.203,47.363,-1.953,0
216834.699,37.598,36.133,25.391,45.898,6.348,0
216834.703,28.809,34.180,24.902,47.363,12.207,0
216834.707,32.715,33.691,38.574,48.828,28.809,0
216834.711,40.039,41.504,44.434,37.598,-8.301,0
216834.715,30.762,28.809,41.016,21.973,-13.672,0
216834.719,28.320,10.742,34.668,19.043,44.434,0
216834.723,26.855,8.301,36.133,16.113,52.734,0
216834.727,21.484,22.461,38.574,21.484,40.527,0
216834.731,17.090,32.227,27.344,29.297,38.086,0
216834.735,25.879,36.621,28.320,39.551,44.922,0
216834.738,33.203,31.250,31.738,49.316,26.855,0
216834.742,39.062,21.484,30.273,53.711,17.090,0
216834.746,48.828,33.203,39.551,52.734,30.273,0
216834.750,28.809,34.668,30.273,20.996,39.062,0
216834.754,13.672,33.203,18.555,0.977,50.293,0
216834.758,26.367,30.762,25.879,5.859,41.016,0
216834.762,33.203,23.926,37.109,16.113,36.621,0
216834.766,24.902,23.926,41.016,24.902,15.625,0
216834.770,25.391,32.227,35.156,29.785,23.926,0
216834.774,41.504,35.156,18.555,42.480,39.062,0
216834.777,60.547,47.852,19.531,59.082,44.434,0
216834.781,55.176,55.664,20.508,60.059,45.898,0
216834.785,39.062,37.598,14.648,49.316,32.227,0
216834.789,36.621,20.020,31.250,30.762,33.691,0
216834.793,30.273,13.672,48.340,20.020,70.801,0
216834.797,24.414,19.043,48.340,18.066,69.824,0
216834.801,23.926,26.367,42.480,16.602,12.695,0
216834.805,28.320,33.691,36.133,23.926,-3.906,0
216834.809,33.691,27.344,33.203,33.203,3.906,0
216834.813,41.504,26.367,27.344,46.387,28.320,0
216834.817,53.711,40.039,27.344,48.340,45.410,0
216834.820,53.711,38.574,30.273,43.457,46.387,0
216834.824,41.992,25.879,29.785,48.340,39.062,0
216834.828,27.344,17.090,38.574,46.875,44.434,0
216834.832,24.902,19.531,48.340,28.809,12.695,0
216834.836,32.227,28.320,54.688,20.508,4.883,0
216834.840,24.902,25.879,46.875,25.391,39.551,0
216834.844,25.391,20.020,26.855,23.926,35.156,0
216834.848,29.785,28.809,23.438,27.344,1.953,0
216834.852,38.574,36.133,28.809,32.227,14.648,0
216834.856,43.457,31.250,28.320,34.180,41.504,0
216834.860,33.691,29.297,39.062,34.180,-7.324,0
216834.863,33.203,34.668,39.062,31.250,1.465,0
216834.867,32.227,33.691,36.133,36.133,18.066,0
216834.871,26.367,28.320,35.645,30.273,13.672,0
216834.875,23.926,27.344,32.715,18.066,43.945,0
216834.879,32.227,36.621,30.273,32.227,45.898,0
216834.883,41.016,45.410,27.832,39.062,47.363,0
216834.887,38.086,40.039,31.738,33.691,65.918,0
216834.891,32.715,41.016,35.156,29.785,45.898,0
216834.895,33.203,45.410,37.598,27.832,30.762,0
216834.899,36.133,41.992,37.598,36.621,58.594,0
216834.902,42.969,34.180,34.180,44.922,54.199,0
216834.906,43.945,25.391,25.879,35.156,42.969,0
216834.910,34.180,30.273,28.320,29.297,18.066,0
216834.914,36.621,39.551,43.457,35.645,2.930,0
216834.918,46.387,43.945,45.898,39.551,20.508,0
216834.922,41.992,39.551,39.062,26.855,12.695,0
216834.926,45.898,39.062,44.434,37.598,34.180,0
216834.930,46.875,41.016,38.574,46.875,33.203,0
216834.934,31.738,28.320,27.832,31.250,-10.742,0
216834.938,27.344,28.809,34.668,21.973,19.531,0
216834.942,29.785,44.434,37.109,37.109,41.504,0
216834.945,28.320,40.039,18.066,39.062,37.109,0
216834.949,28.320,25.391,18.066,27.832,34.180,0
216834.953,32.227,24.902,29.297,39.551,27.344,0
216834.957,32.227,28.320,26.367,45.898,-5.859,0
216834.961,27.344,26.367,33.203,46.875,7.812,0
216834.965,28.320,28.809,46.875,45.898,-9.277,0
216834.969,44.434,35.645,42.969,39.551,-38.086,0
216834.973,45.898,35.645,31.250,41.016,5.371,0
216834.977,46.387,39.062,36.621,49.316,41.992,0
216834.981,42.969,36.133,39.062,42.969,35.156,0
216834.985,39.551,25.879,25.879,41.992,25.879,0
216834.988,42.480,22.949,27.344,41.504,33.203,0
216834.992,28.320,25.391,33.203,28.809,45.898,0
216834.996,18.555,25.391,36.621,19.043,31.250,0
216835.000,26.367,39.062,41.992,29.785,-24.902,0
216835.004,32.715,41.016,32.227,34.180,-3.906,0
216835.008,26.855,33.691,21.973,35.156,53.711,0
216835.012,31.738,42.480,35.645,41.504,26.855,0
216835.016,39.062,38.086,45.898,37.598,29.785,0
216835.020,39.062,33.203,39.551,43.945,23.438,0
216835.024,37.109,22.461,34.668,30.273,-3.906,0
216835.027,24.902,6.348,23.438,17.578,7.324,0
216835.031,26.367,18.555,19.531,31.250,-7.324,0
216835.035,30.273,32.227,23.438,41.504,34.668,0
216835.039,29.297,26.855,30.273,34.180,56.641,0
216835.043,33.203,23.438,41.504,31.250,26.367,0
216835.047,27.832,18.066,38.086,31.250,51.758,0
216835.051,26.855,23.926,29.785,26.855,40.039,0
216835.055,40.039,40.039,40.039,38.574,37.109,0
216835.059,46.387,45.410,35.645,44.922,59.570,0
216835.063,37.109,35.156,19.531,36.133,74.219,0
216835.067,21.484,18.555,22.461,22.461,61.523,0
216835.070,19.531,17.578,32.227,16.113,47.852,0
216835.074,32.227,21.973,32.715,21.973,20.996,0
216835.078,48.340,26.855,35.156,40.039,29.785,0
216835.082,47.363,30.273,29.785,41.016,62.988,0
216835.086,35.645,29.785,22.949,24.414,44.434,0
216835.090,34.180,32.715,26.855,26.855,32.227,0
216835.094,32.227,27.344,23.438,33.691,42.969,0
216835.098,38.086,27.344,26.855,29.785,41.504,0
216835.102,40.039,40.039,32.715,35.645,18.555,0
216835.106,25.879,32.227,29.785,33.203,18.555,0
216835.110,23.438,11.230,32.227,24.902,33.691,0
216835.113,26.855,8.301,36.133,32.715,46.875,0
216835.117,25.391,25.879,38.086,44.922,14.648,1
216835.121,29.785,33.691,31.250,50.293,-7.812,0
216835.125,29.297,26.367,16.113,31.738,24.414,0
216835.129,23.438,23.438,17.090,20.996,2.441,0
216835.133,28.809,35.156,36.621,32.715,24.414,0
216835.137,31.250,36.621,43.945,37.598,42.480,0
216835.141,20.996,28.809,33.691,29.785,18.555,0
216835.145,19.531,21.973,32.227,19.531,10.254,0
216835.149,24.414,30.762,29.297,17.090,15.137,0
216835.152,27.832,33.203,18.555,29.297,52.734,0
216835.156,37.109,21.484,21.973,38.574,45.898,0
216835.160,41.504,21.973,24.414,37.109,29.785,0
216835.164,38.086,26.855,29.297,34.180,58.594,0
216835.168,30.762,25.879,29.785,34.180,51.270,0
216835.172,29.785,28.320,24.902,25.879,6.836,0
216835.176,36.133,37.109,26.367,23.438,-2.930,0
216835.180,25.879,30.762,21.484,21.973,22.949,0
216835.184,15.137,17.578,17.578,11.719,22.461,0
216835.188,28.809,18.555,27.344,17.090,16.602,0
216835.192,35.645,26.367,35.645,34.668,40.039,0
216835.195,20.020,23.438,36.621,30.273,27.344,0
216835.199,14.160,24.902,36.621,22.461,20.996,0
216835.203,23.438,28.320,32.227,26.855,46.875,0
216835.207,25.391,27.344,24.414,29.297,37.109,0
216835.211,20.996,21.973,19.043,25.879,29.297,0
216835.215,19.043,16.602,18.555,21.973,25.879,0
216835.219,15.137,19.531,16.602,24.414,6.836,0
216835.223,20.996,26.367,27.344,39.551,-23.926,0
216835.227,28.809,24.902,36.621,42.480,14.648,0
216835.231,25.879,20.996,27.344,26.855,46.875,0
216835.235,26.367,25.391,29.297,20.020,20.996,0
216835.238,33.203,34.668,33.691,25.879,41.016,0
216835.242,28.809,26.367,21.973,27.344,19.531,0
216835.246,18.555,11.719,22.461,20.996,24.414,0
216835.250,20.996,12.695,30.762,16.113,62.012,0
216835.254,28.809,17.578,31.738,21.484,43.457,0
216835.258,30.762,19.531,38.574,26.367,22.949,0
216835.262,29.785,26.855,42.969,33.691,38.086,0
216835.266,27.832,36.621,33.203,38.574,7.812,0
216835.270,27.832,34.180,22.949,21.484,3.906,0
216835.274,28.809,28.320,20.508,14.648,69.336,0
216835.277,34.668,28.320,25.391,25.879,41.992,0
216835.281,29.297,20.020,24.902,29.297,-5.859,0
216835.285,23.438,8.789,21.973,26.367,-6.836,0
216835.289,20.508,9.277,29.785,24.414,-18.066,0
216835.293,24.902,26.367,41.504,29.785,-7.812,0
216835.297,38.086,32.227,43.457,38.574,24.902,0
216835.301,37.109,20.020,42.969,34.180,5.859,0
216835.305,27.832,22.949,41.016,42.480,20.020,0
216835.309,20.020,27.832,30.762,41.992,48.340,0
216835.313,27.832,26.855,28.320,28.809,19.043,0
216835.317,26.367,19.531,28.809,33.691,12.695,0
216835.320,17.090,10.254,24.414,33.691,30.273,0
216835.324,22.461,19.043,37.598,32.227,12.695,0
216835.328,33.691,27.344,41.504,30.762,9.277,0
216835.332,28.809,28.320,27.832,25.879,57.129,0
216835.336,26.367,29.297,37.109,29.297,73.730,0
216835.340,38.086,36.133,43.457,35.645,47.363,0
216835.344,47.363,39.062,32.715,36.133,27.344,0
216835.348,45.410,24.414,22.949,38.574,26.855,0
216835.352,31.738,13.184,21.973,27.344,44.434,0
216835.356,37.109,27.344,27.832,35.645,37.109,0
216835.360,42.480,29.297,24.414,45.410,6.348,0
216835.363,30.273,17.090,21.973,32.227,19.043,0
216835.367,21.973,18.555,26.367,28.320,35.156,0
216835.371,21.973,21.973,36.133,22.461,42.480,0
216835.375,26.855,23.438,39.062,23.438,65.430,0
216835.379,31.250,32.227,40.039,31.738,62.012,0
216835.383,37.598,28.320,40.527,31.250,10.254,0
216835.387,45.898,23.926,37.109,39.062,-43.457,0
216835.391,46.875,32.227,40.039,46.387,3.906,0
216835.395,38.574,25.879,34.668,39.062,62.012,0
216835.399,32.227,19.531,19.043,32.715,36.133,0
216835.402,31.738,26.855,18.555,29.785,75.684,0
216835.406,30.762,34.180,36.133,36.133,114.258,0
216835.410,36.621,34.668,41.504,55.664,96.191,0
216835.414,41.016,33.203,32.715,41.992,73.242,0
216835.418,31.250,21.484,33.691,15.625,22.949,0
216835.422,41.016,10.742,36.133,28.320,46.875,0
216835.426,50.293,20.020,34.180,40.039,96.191,0
216835.430,45.410,30.273,29.785,36.621,98.145,0
216835.434,52.734,31.250,26.367,42.480,98.145,0
216835.438,42.480,27.832,23.438,44.434,62.012,0
216835.442,33.203,29.297,27.832,34.668,47.852,0
216835.445,34.180,29.785,36.133,32.227,71.289,0
216835.449,28.809,19.531,28.320,31.738,25.391,0
216835.453,31.250,17.090,35.645,38.086,21.973,0
216835.457,37.598,24.414,39.551,47.852,64.941,0
216835.461,45.898,36.133,30.762,43.945,31.250,0
216835.465,39.062,35.645,30.273,39.551,33.691,0
216835.469,24.902,23.926,33.203,34.668,57.129,0
216835.473,35.156,27.832,33.203,30.273,28.320,0
216835.477,45.898,33.203,30.762,37.109,9.277,0
216835.481,42.480,33.203,34.180,43.457,11.230,0
216835.485,42.480,35.645,32.227,42.969,44.434,0
216835.488,32.227,32.227,29.785,33.203,52.734,0
216835.492,19.043,28.320,26.367,27.344,44.434,0
216835.496,27.832,23.926,22.949,30.273,38.086,0
216835.500,35.156,18.555,27.832,26.367,11.719,0
216835.504,35.645,21.484,35.645,19.043,32.715,0
216835.508,40.527,24.902,37.598,17.578,22.461,0
216835.512,39.551,26.855,37.598,22.461,13.672,0
216835.516,46.875,37.598,37.109,37.109,47.852,0
216835.520,56.152,44.922,34.668,43.457,35.645,0
216835.524,39.551,38.086,31.738,41.504,49.805,0
216835.527,25.879,32.715,28.320,39.062,49.316,0
216835.531,25.391,26.855,22.949,31.250,17.090,0
216835.535,14.160,16.602,24.414,28.809,12.695,0
216835.539,13.184,21.484,30.762,33.203,7.812,0
216835.543,19.043,33.203,28.320,24.414,-8.789,0
216835.547,21.484,30.762,25.391,20.996,-5.371,0
216835.551,26.855,22.949,22.949,18.555,-19.531,0
216835.555,26.367,20.508,20.020,18.555,-46.875,0
216835.559,27.344,18.555,26.855,26.855,-2.441,0
216835.563,41.504,40.039,32.715,39.062,-5.371,0
216835.567,46.387,56.152,24.902,36.621,-5.371,0
216835.570,38.574,39.062,33.203,22.949,20.508,0
216835.574,39.062,33.691,44.434,25.879,-12.207,0
216835.578,26.367,24.414,30.273,17.090,-4.883,0
216835.582,18.066,12.207,23.438,14.648,23.438,0
216835.586,23.438,22.461,28.320,32.227,9.766,0
216835.590,24.414,35.156,29.785,39.551,5.371,0
216835.594,17.090,28.809,22.949,21.973,4.883,0
216835.598,14.648,17.090,16.113,18.066,-7.324,0
216835.602,24.902,15.625,25.391,29.785,9.766,0
216835.606,35.645,11.719,37.598,35.645,18.555,0
216835.610,28.320,10.254,42.480,35.645,41.504,0
216835.613,17.090,11.719,33.691,25.879,58.594,0
216835.617,21.973,19.531,35.156,24.902,17.578,0
216835.621,31.738,36.133,30.762,36.621,-10.254,0
216835.625,25.391,35.645,8.301,32.715,33.691,0
216835.629,13.184,30.273,24.902,25.879,66.895,0
216835.633,28.809,31.250,49.316,43.457,65.430,0
216835.637,33.691,23.438,35.645,44.922,55.176,0
216835.641,14.160,18.555,20.996,13.672,48.828,0
216835.645,0.488,25.879,23.438,-1.465,46.875,0
216835.649,-1.465,20.508,29.297,3.906,74.707,0
216835.652,0.000,13.184,29.297,2.930,72.266,0
216835.656,1.465,20.508,26.855,6.348,52.734,0
216835.660,10.254,28.320,19.531,8.789,43.457,0
216835.664,20.996,25.879,12.695,6.836,44.922,0
216835.668,16.113,17.578,21.484,16.113,45.410,0
216835.672,2.930,15.137,25.879,21.484,54.199,0
216835.676,0.488,24.902,26.367,15.625,62.988,0
216835.680,16.602,36.621,32.715,12.207,20.508,0
216835.684,22.461,38.086,34.180,10.742,-6.348,0
216835.688,7.812,30.273,26.367,15.137,22.949,0
216835.692,5.371,16.602,26.855,15.625,56.152,0
216835.695,13.672,16.602,29.297,14.648,58.105,0
216835.699,15.625,23.438,19.043,17.090,20.996,0
216835.703,16.113,29.785,30.762,19.531,16.113,0
216835.707,28.809,27.344,47.852,27.832,56.152,0
216835.711,37.598,20.996,37.598,37.598,72.266,0
216835.715,30.762,35.645,27.344,56.152,58.105,0
216835.719,24.902,41.504,32.715,51.270,51.270,0
216835.723,21.973,30.273,33.203,25.879,32.715,0
216835.727,24.902,24.902,22.461,26.367,30.762,0
216835.731,30.273,26.367,25.391,40.039,11.719,0
216835.735,41.504,18.555,45.410,37.598,-10.254,2
216835.738,48.340,19.531,53.223,37.598,1.465,0
216835.742,49.805,38.574,52.734,50.293,26.855,0
216835.746,47.852,33.203,35.156,37.109,34.668,0
216835.750,46.875,34.180,24.902,31.738,24.414,0
216835.754,48.340,44.434,28.809,42.969,65.918,0
216835.758,41.016,33.203,21.484,41.016,66.895,0
216835.762,39.062,22.949,20.020,49.805,9.766,0
216835.766,37.109,21.484,21.484,51.758,8.789,0
216835.770,38.086,23.926,22.461,44.922,40.527,0
216835.774,38.574,26.855,37.109,42.480,44.922,0
216835.777,35.156,25.879,48.828,37.598,39.551,0
216835.781,44.434,19.531,48.828,41.992,56.152,0
216835.785,58.105,31.738,51.758,64.453,67.871,0
216835.789,54.199,42.969,44.434,59.082,7.812,0
216835.793,42.969,33.203,20.996,31.738,-14.648,0
216835.797,45.898,30.273,23.926,36.133,38.086,0
216835.801,37.598,32.227,34.180,33.691,45.410,0
216835.805,34.668,28.320,28.320,34.180,43.945,0
216835.809,46.875,27.344,31.250,45.898,44.434,0
216835.813,43.457,22.949,34.180,41.504,-0.977,0
216835.817,43.457,21.484,33.691,43.457,-16.602,0
216835.820,44.434,30.273,32.715,42.480,2.441,0
216835.824,38.574,30.762,32.715,28.320,24.414,0
216835.828,39.062,29.297,41.992,36.621,-0.488,0
216835.832,36.133,30.273,39.062,40.039,-13.672,0
216835.836,38.086,27.832,25.391,26.367,17.090,0
216835.840,39.062,24.414,21.973,29.297,62.988,0
216835.844,31.738,21.973,26.367,30.273,77.637,0
216835.848,33.691,30.762,25.879,33.691,88.867,0
216835.852,44.434,35.645,22.949,47.363,88.379,0
216835.856,39.551,17.090,28.320,36.621,52.734,0
216835.860,32.715,17.090,36.621,35.156,78.613,0
216835.863,34.180,32.227,36.621,44.922,102.539,0
216835.867,37.109,37.109,36.133,37.598,92.773,0
216835.871,38.574,31.738,34.180,36.133,104.492,0
216835.875,38.574,20.996,25.391,36.133,58.594,0
216835.879,38.086,22.461,29.785,35.156,35.156,0
216835.883,31.250,28.809,28.809,34.180,52.246,0
216835.887,24.414,28.809,23.438,44.434,65.430,0
216835.891,24.902,29.785,29.785,52.246,72.266,0
216835.895,35.156,29.785,33.691,49.805,56.641,0
216835.899,37.598,29.785,35.645,46.387,27.832,0
216835.902,25.391,26.367,41.992,35.645,44.434,0
216835.906,22.461,9.766,39.062,36.621,48.828,0
216835.910,31.250,10.742,21.973,34.668,41.504,0
216835.914,32.715,24.414,17.578,28.320,42.969,0
216835.918,26.367,20.996,20.996,26.367,41.016,0
216835.922,21.973,19.531,33.203,27.344,24.414,0
216835.926,25.879,22.949,35.156,30.762,-2.441,0
216835.930,37.598,27.344,34.668,31.250,32.715,0
216835.934,36.621,28.809,38.086,37.109,49.805,0
216835.938,40.039,19.531,27.832,39.551,29.785,0
216835.942,36.621,15.625,27.832,38.086,17.578,0
216835.945,19.531,20.996,24.902,30.762,-12.207,0
216835.949,20.020,23.926,25.879,26.367,7.324,0
216835.953,23.926,11.719,27.344,27.344,25.391,0
216835.957,32.227,3.906,18.555,35.156,33.203,0
216835.961,34.668,15.625,18.066,36.133,85.449,0
216835.965,29.297,27.832,32.715,37.109,62.012,0
216835.969,40.527,38.086,45.410,43.945,-14.648,0
216835.973,37.109,37.109,44.922,31.738,-21.973,0
216835.977,30.273,23.926,37.598,27.832,24.414,0
216835.981,34.180,19.531,25.391,34.668,24.902,0
216835.985,34.668,22.461,27.832,26.855,7.812,0
216835.988,31.250,24.902,32.227,27.832,29.297,0
216835.992,36.133,29.785,21.973,39.551,22.461,0
216835.996,53.711,39.062,21.973,42.480,0.000,0
216836.000,41.016,34.668,28.809,34.180,-35.156,0
216836.004,28.809,14.160,28.320,27.344,-38.086,0
216836.008,39.551,8.301,30.273,34.668,18.066,0
216836.012,43.945,23.926,38.086,37.109,15.137,0
216836.016,49.316,37.598,36.133,40.039,-33.691,0
216836.020,41.992,28.809,30.762,34.668,4.395,0
216836.024,26.367,20.996,24.414,14.160,53.223,0
216836.027,25.391,32.227,17.090,13.184,40.527,0
216836.031,33.691,40.527,17.578,28.320,23.926,0
216836.035,40.527,34.180,18.066,41.016,23.438,0
216836.039,40.527,25.879,27.344,33.691,27.832,0
216836.043,36.621,26.367,37.109,27.832,57.617,0
216836.047,34.180,30.762,35.156,38.574,63.965,0
216836.051,26.855,30.273,35.645,45.898,24.902,0
216836.055,30.273,25.391,29.297,46.387,24.414,0
216836.059,34.668,23.438,14.648,30.273,0.977,0
216836.063,29.785,24.414,16.602,25.879,-36.621,0
216836.067,26.855,25.879,31.250,37.109,4.395,0
216836.070,31.250,20.508,36.133,39.551,49.316,0
216836.074,33.691,16.602,39.551,41.016,63.965,0
216836.078,42.480,24.902,46.387,44.922,82.520,0
216836.082,46.387,32.715,44.434,46.875,101.562,0
216836.086,36.133,21.484,35.645,38.574,56.152,0
216836.090,44.922,23.438,38.086,40.039,34.180,0
216836.094,52.734,32.227,39.551,43.945,51.270,0
216836.098,39.551,28.320,24.902,45.898,45.410,0
216836.102,40.527,32.715,23.438,51.270,41.016,0
216836.106,44.434,36.621,37.598,50.781,42.480,0
216836.110,35.645,30.762,39.551,46.875,35.156,0
216836.113,29.297,25.879,32.227,35.645,23.438,0
216836.117,23.438,29.297,28.320,25.879,3.906,0
216836.121,29.297,30.273,30.273,25.391,12.695,0
216836.125,37.109,29.785,34.668,29.785,29.297,0
216836.129,41.992,29.297,33.203,35.645,22.949,0
216836.133,43.457,25.391,33.203,34.180,0.488,0
216836.137,36.621,21.484,32.715,31.250,1.953,0
216836.141,37.598,23.438,30.273,38.574,41.992,0
216836.145,41.992,26.367,31.250,46.875,30.762,0
216836.149,45.410,22.949,38.574,43.457,1.953,0
216836.152,45.410,24.902,43.457,39.551,20.508,0
216836.156,37.109,23.438,37.109,36.133,35.156,0
216836.160,38.574,30.273,34.180,32.715,36.133,0
216836.164,46.875,39.551,34.668,36.621,5.371,0
216836.168,39.062,41.992,26.367,31.250,-46.875,0
216836.172,28.320,38.086,31.738,26.855,-16.602,0
216836.176,27.832,33.203,43.945,37.598,-11.230,0
216836.180,31.250,30.762,40.527,35.156,-21.484,0
216836.184,33.691,27.344,33.691,30.273,-8.301,0
216836.188,32.715,25.391,27.344,37.109,2.930,0
216836.192,48.340,34.668,35.156,42.480,-6.836,0
216836.195,46.387,31.250,45.410,34.180,-1.465,0
216836.199,24.414,19.531,27.832,28.320,20.508,0
216836.203,26.855,25.879,10.254,29.297,58.105,0
216836.207,28.809,26.367,19.043,19.043,60.059,0
216836.211,30.762,30.273,26.855,8.789,-22.949,0
216836.215,22.949,30.273,22.949,4.883,-41.504,0
216836.219,15.137,21.484,27.344,10.742,11.230,0
216836.223,26.855,26.855,33.691,26.367,6.836,0
216836.227,46.387,32.715,36.621,42.969,10.742,0
216836.231,42.480,23.438,37.598,38.574,23.438,0
216836.235,20.508,24.414,33.203,20.996,12.207,0
216836.238,16.113,35.645,32.227,14.160,7.324,0
216836.242,18.555,29.785,31.738,21.973,61.035,0
216836.246,23.438,14.648,22.949,33.691,77.637,0
216836.250,20.996,15.625,17.578,34.668,50.293,0
216836.254,20.508,27.832,20.508,25.879,60.059,0
216836.258,26.855,28.320,31.250,21.484,9.277,0
216836.262,38.086,33.691,40.039,37.598,31.738,0
216836.266,44.922,42.969,38.086,54.688,93.262,0
216836.270,36.133,40.039,39.551,48.340,58.105,0
216836.274,32.715,30.762,39.062,36.621,54.688,0
216836.277,40.527,26.367,34.668,36.133,66.406,0
216836.281,41.016,19.531,34.668,33.203,19.531,0
216836.285,24.414,19.531,29.297,28.320,-17.090,0
216836.289,20.508,25.879,27.344,30.762,8.301,0
216836.293,35.156,22.949,25.879,38.574,39.551,2
216836.297,34.180,15.137,28.320,38.574,-2.930,0
216836.301,26.855,21.973,34.668,29.297,-37.598,0
216836.305,26.367,25.879,31.738,30.273,-25.391,0
216836.309,28.320,20.996,36.621,37.109,-6.836,0
216836.313,39.551,24.902,46.387,36.621,26.367,0
216836.317,45.410,31.250,45.898,41.992,9.766,0
216836.320,45.898,35.156,29.297,50.293,-23.438,0
216836.324,50.781,28.809,14.648,43.945,0.000,0
216836.328,48.828,22.461,13.672,36.133,-1.953,0
216836.332,38.574,22.461,24.902,29.297,-4.883,0
216836.336,33.203,20.020,39.062,39.062,0.488,0
216836.340,39.062,22.949,34.668,49.805,-25.879,0
216836.344,37.109,30.762,37.109,35.156,2.441,0
216836.348,22.461,27.344,41.016,28.809,-4.395,0
216836.352,12.695,17.578,34.668,36.621,10.254,0
216836.356,14.648,11.719,31.738,39.551,68.359,0
216836.360,17.090,10.742,29.297,29.297,38.574,0
216836.363,30.273,21.973,25.391,30.762,46.875,0
216836.367,41.504,32.715,19.531,40.527,53.711,0
216836.371,39.062,24.414,25.391,35.156,48.828,0
216836.375,35.645,16.602,26.855,26.367,50.293,0
216836.379,27.832,23.926,32.715,28.809,90.820,0
216836.383,28.809,33.691,40.527,32.715,124.512,0
216836.387,35.645,44.434,46.875,29.297,73.242,0
216836.391,33.691,39.551,54.688,20.996,34.180,0
216836.395,30.273,24.902,38.574,18.555,3.906,0
216836.399,24.902,13.184,11.230,18.066,-2.930,0
216836.402,24.902,14.160,13.184,14.648,20.020,0
216836.406,26.855,20.508,27.344,25.391,58.105,0
216836.410,42.480,25.391,23.438,43.945,93.750,0
216836.414,52.246,31.738,20.508,43.457,92.285,0
216836.418,43.457,36.133,26.367,40.527,71.289,0
216836.422,38.574,31.250,37.109,42.480,57.129,0
216836.426,25.879,24.414,42.969,35.156,77.637,0
216836.430,20.508,28.809,26.855,38.574,107.422,0
216836.434,25.879,31.250,21.484,35.156,88.867,0
216836.438,29.297,31.250,31.250,20.508,43.945,0
216836.442,32.227,20.020,26.855,24.414,31.250,0
216836.445,41.504,20.508,35.156,35.645,30.273,0
216836.449,43.945,31.250,37.598,29.785,22.461,0
216836.453,31.250,20.996,27.832,21.484,27.832,0
216836.457,27.832,22.461,34.180,22.949,42.969,0
216836.461,34.668,29.785,38.574,26.855,31.250,0
216836.465,29.297,20.996,36.133,25.391,6.836,0
216836.469,25.391,18.555,32.715,20.020,20.996,0
216836.473,31.738,24.414,25.879,28.320,39.551,0
216836.477,42.969,29.785,18.555,40.039,33.203,0
216836.481,56.641,39.062,30.762,45.898,23.926,0
216836.485,55.664,37.109,44.922,39.062,26.367,0
216836.488,44.434,23.438,35.156,26.367,9.766,0
216836.492,53.711,20.508,32.227,35.645,-28.809,0
216836.496,60.547,24.414,36.621,35.156,-70.801,0
216836.500,47.363,33.203,37.109,31.738,-55.664,0
216836.504,43.945,34.668,38.086,46.875,-36.621,0
216836.508,41.504,27.832,24.414,37.109,-79.590,0
216836.512,32.227,24.902,12.695,21.484,-52.246,0
216836.516,30.762,22.461,17.090,30.273,-2.930,0
216836.520,41.016,30.762,28.320,41.504,-38.086,0
216836.524,48.340,27.832,38.574,35.156,-56.152,0
216836.527,45.410,23.926,50.293,33.203,-27.832,0
216836.531,36.133,30.273,49.316,38.086,-7.324,0
216836.535,30.273,23.438,37.598,24.902,2.930,0
216836.539,34.180,26.367,32.715,23.926,-0.977,0
216836.543,34.668,30.762,23.438,34.668,15.625,0
216836.547,32.715,25.879,14.160,33.691,57.129,0
216836.551,40.039,28.320,8.789,36.133,58.594,0
216836.555,36.621,25.879,28.320,26.855,48.828,0
216836.559,25.879,15.137,49.316,16.113,56.152,0
216836.563,32.227,25.879,52.734,29.297,59.082,0
216836.567,33.691,38.086,50.781,41.504,41.016,0
216836.570,32.715,29.785,52.246,33.691,35.645,0
216836.574,37.109,15.625,53.711,30.273,42.969,0
216836.578,30.273,17.090,41.016,37.598,74.219,0
216836.582,35.156,31.250,20.996,38.086,78.125,0
216836.586,41.016,35.156,18.555,28.320,23.438,0
216836.590,26.367,30.762,35.645,26.367,25.879,0
216836.594,31.738,37.109,43.945,40.039,64.453,0
216836.598,36.621,41.992,50.293,40.527,30.273,0
216836.602,29.297,27.344,48.340,28.809,21.484,0
216836.606,27.344,24.414,40.039,31.250,36.133,0
216836.610,20.508,27.832,31.738,39.062,33.203,0
216836.613,30.762,28.809,42.969,46.387,30.762,0
216836.617,34.180,22.949,45.898,40.039,31.250,0
216836.621,40.527,30.273,32.715,43.945,62.012,0
216836.625,48.828,40.527,23.438,51.270,51.270,0
216836.629,34.668,28.320,16.602,35.645,15.137,0
216836.633,30.762,20.996,29.785,29.785,5.859,0
216836.637,26.855,24.902,51.270,30.273,37.109,0
216836.641,20.996,26.367,52.734,33.203,96.680,0
216836.645,28.809,21.973,37.109,44.922,96.191,0
216836.649,39.551,20.508,35.156,57.129,66.406,0
216836.652,42.969,26.855,40.527,58.105,25.879,0
216836.656,46.875,34.180,36.621,45.898,-15.625,0
216836.660,43.457,32.227,38.086,46.387,45.410,0
216836.664,35.156,24.902,37.598,46.875,81.543,0
216836.668,35.156,24.414,29.785,41.992,63.965,0
216836.672,40.527,24.902,31.738,39.551,54.199,0
216836.676,39.551,20.996,32.715,29.297,27.344,0
216836.680,36.621,33.691,26.367,29.297,30.273,0
216836.684,40.527,42.480,27.832,43.457,56.152,0
216836.688,41.992,38.086,28.809,41.992,30.273,0
216836.692,51.270,36.621,27.344,35.645,31.250,0
216836.695,49.805,39.062,42.969,48.828,71.289,0
216836.699,38.086,34.180,40.527,50.781,57.617,0
216836.703,35.156,33.691,32.227,42.480,27.344,0
216836.707,31.738,32.227,41.016,40.527,68.848,0
216836.711,17.090,20.508,34.180,28.320,59.570,0
216836.715,14.648,13.672,20.996,13.672,52.246,0
216836.719,23.438,18.555,29.297,10.742,43.945,0
216836.723,19.531,24.414,37.598,12.695,19.531,0
216836.727,13.184,16.602,33.691,9.277,59.570,0
216836.731,11.719,5.371,24.414,12.695,46.387,0
216836.735,17.090,17.090,30.762,24.414,45.410,0
216836.738,25.879,37.598,44.922,33.691,67.871,0
216836.742,31.250,41.016,41.504,29.297,33.203,0
216836.746,23.926,41.992,34.180,28.809,21.484,0
216836.750,16.113,36.621,27.344,14.160,50.293,0
216836.754,7.812,28.320,31.738,-2.441,43.457,0
216836.758,2.930,26.855,30.273,6.836,46.387,0
216836.762,2.441,29.785,25.391,11.230,65.918,0
216836.766,-3.418,23.438,24.902,-9.277,28.809,0
216836.770,-4.395,19.531,21.484,-14.648,25.391,0
216836.774,2.930,22.461,28.809,-0.977,86.426,0
216836.777,2.930,32.715,37.598,4.883,76.172,0
216836.781,2.930,32.227,36.133,4.395,50.293,0
216836.785,10.742,22.949,33.203,12.207,97.168,0
216836.789,6.836,32.227,33.203,9.766,88.867,0
216836.793,-7.812,36.621,27.344,-7.812,70.801,0
216836.797,-9.766,33.691,21.484,-8.789,116.699,0
216836.801,-1.465,31.250,21.484,-5.859,108.398,0
216836.805,0.977,31.250,24.902,-1.465,102.539,0
216836.809,1.953,33.691,26.367,3.906,86.914,0
216836.813,-1.953,35.156,27.344,1.953,62.500,0
216836.817,8.301,36.621,22.461,12.695,73.242,0
216836.820,5.859,38.574,19.043,6.348,35.645,0
216836.824,-11.719,39.062,25.879,-7.812,5.859,0
216836.828,-7.812,38.574,23.438,2.441,19.043,0
216836.832,-5.371,36.621,15.625,0.000,12.207,0
216836.836,-15.625,42.480,17.578,-21.484,20.996,0
216836.840,-29.785,53.223,18.066,-42.480,34.668,0
216836.844,-29.297,54.688,21.973,-39.551,56.152,0
216836.848,-14.160,53.711,28.809,-22.949,57.129,0
216836.852,-27.832,54.199,23.438,-31.738,30.762,0
216836.856,-54.688,41.016,26.367,-46.387,16.602,0
216836.860,-54.199,32.715,25.879,-41.016,11.230,0
216836.863,-52.734,44.434,22.461,-35.156,17.578,0
216836.867,-56.641,51.270,29.785,-52.734,24.414,0
216836.871,-58.105,43.457,30.273,-72.754,2.441,0
216836.875,-58.594,36.133,28.809,-65.430,-5.371,0
216836.879,-48.828,31.250,21.484,-54.688,15.625,0
216836.883,-23.926,33.691,22.461,-31.250,0.000,0
216836.887,-19.043,39.062,25.391,-12.695,-7.812,0
216836.891,-20.996,43.457,25.391,-19.043,28.809,0
216836.895,-14.648,43.945,30.273,-14.160,42.480,0
216836.899,-7.812,35.645,22.461,-9.277,40.527,0
216836.902,1.465,33.691,14.160,-2.441,19.531,0
216836.906,8.789,36.133,20.996,6.348,12.207,0
216836.910,18.066,31.250,33.691,24.414,-8.789,0
216836.914,20.996,26.367,24.414,32.715,-13.672,0
216836.918,31.250,30.762,23.926,31.250,9.766,0
216836.922,41.504,24.414,34.668,44.434,12.207,0
216836.926,37.109,21.484,32.227,48.340,66.406,0
216836.930,41.992,24.414,23.438,42.480,70.801,0
216836.934,53.223,9.766,31.738,52.246,76.660,0
216836.938,44.434,9.766,41.504,53.711,103.027,0
216836.942,42.969,24.414,37.109,48.340,73.730,0
216836.945,56.641,30.273,33.691,52.734,26.855,0
216836.949,52.734,26.855,29.785,50.781,15.625,0
216836.953,39.551,18.555,30.762,42.480,32.715,0
216836.957,41.016,10.742,34.180,47.363,46.387,0
216836.961,50.781,8.301,30.762,60.547,-5.859,0
216836.965,39.551,11.230,29.785,48.340,-24.902,0
216836.969,33.691,12.695,34.180,36.133,10.254,0
216836.973,40.039,8.301,17.090,42.480,-21.973,2
216836.977,57.129,8.789,17.578,57.617,-11.719,0
216836.981,71.777,19.531,35.645,71.777,-11.230,0
216836.985,58.594,20.020,28.320,72.754,0.977,0
216836.988,52.734,17.578,34.668,63.477,37.109,0
216836.992,56.152,15.137,41.504,53.223,39.062,0
216836.996,65.430,20.020,33.203,57.129,4.883,0
216837.000,62.012,27.832,30.273,62.012,8.301,0
216837.004,50.293,19.531,28.320,55.664,65.430,0
216837.008,50.781,10.254,24.414,46.387,38.086,0
216837.012,54.199,10.742,19.531,62.012,35.156,0
216837.016,65.430,8.789,25.879,72.266,53.711,0
216837.020,67.871,9.766,31.250,60.547,41.992,0
216837.024,59.082,14.648,26.855,59.082,68.359,0
216837.027,66.895,22.461,34.180,70.312,90.820,0
216837.031,78.125,30.273,49.805,90.332,60.547,0
216837.035,66.406,26.855,39.551,81.543,56.152,0
216837.039,47.363,22.461,21.973,55.664,83.008,0
216837.043,42.969,17.090,21.484,49.805,74.707,0
216837.047,47.852,8.301,16.113,42.969,18.066,0
216837.051,50.781,16.602,21.973,38.086,28.809,0
216837.055,49.805,29.297,42.480,54.688,77.637,0
216837.059,58.594,27.344,50.781,71.777,79.102,0
216837.063,62.988,20.020,46.875,63.965,54.199,0
216837.067,56.152,22.949,49.316,64.453,4.883,0
216837.070,57.129,26.855,47.852,64.941,30.762,0
216837.074,62.500,29.297,37.109,65.430,29.785,0
216837.078,59.082,25.391,27.832,61.523,8.789,0
216837.082,50.293,16.602,16.113,47.363,62.012,0
216837.086,47.852,22.949,20.020,42.480,70.312,0
216837.090,46.875,20.996,33.691,43.945,56.641,0
216837.094,43.945,17.578,27.344,46.875,52.734,0
216837.098,42.480,19.043,24.902,50.781,59.082,0
216837.102,53.711,20.508,43.945,68.848,48.828,0
216837.106,50.293,24.414,57.129,72.266,27.344,0
216837.110,45.410,24.414,50.293,64.453,3.418,0
216837.113,50.781,12.207,32.715,54.688,12.695,0
216837.117,43.945,12.207,28.320,47.363,33.691,0
216837.121,40.039,26.855,30.273,42.969,9.766,0
216837.125,42.969,31.738,35.156,36.133,-30.762,0
216837.129,46.875,31.738,44.922,40.039,-48.340,0
216837.133,52.246,24.902,40.527,44.922,-37.109,0
216837.137,50.781,27.832,33.203,45.410,-53.223,0
216837.141,44.922,39.062,43.945,45.898,-40.527,0
216837.145,50.293,48.828,49.316,51.758,-22.949,0
216837.149,55.664,44.434,37.598,62.012,10.742,0
216837.152,46.387,26.855,29.297,48.340,41.992,0
216837.156,45.898,11.719,27.832,29.785,43.945,0
216837.160,43.457,9.766,25.391,29.785,25.879,0
216837.164,41.504,27.344,32.715,41.016,-8.789,0
216837.168,49.316,37.598,42.969,50.293,16.602,0
216837.172,38.574,35.156,42.969,26.855,18.555,0
216837.176,24.414,37.598,36.621,16.113,26.855,0
216837.180,34.668,35.156,36.621,38.574,39.551,0
216837.184,33.203,26.855,32.227,48.340,-1.953,0
216837.188,24.902,20.020,16.602,23.438,4.883,0
216837.192,26.855,19.043,17.090,13.672,45.898,0
216837.195,39.062,20.996,20.996,34.668,52.246,0
216837.199,46.875,13.184,29.785,44.922,38.086,0
216837.203,40.039,20.508,33.691,38.574,41.504,0
216837.207,44.922,41.504,29.297,42.969,90.332,0
216837.211,51.758,38.574,34.180,49.805,114.746,0
216837.215,53.711,30.273,37.109,44.922,59.082,0
216837.219,40.527,26.367,29.297,46.387,3.906,0
216837.223,32.227,22.461,12.695,38.574,5.371,0
216837.227,35.645,22.461,16.602,38.574,20.508,0
216837.231,31.738,22.949,37.109,41.992,42.480,0
216837.235,41.016,25.391,40.039,34.180,39.551,0
216837.238,43.945,30.273,36.133,37.109,15.625,0
216837.242,35.645,32.715,40.527,41.016,25.391,0
216837.246,41.504,31.738,38.574,45.898,1.953,0
216837.250,41.016,27.344,38.086,45.898,-4.395,0
216837.254,41.504,31.250,37.598,48.340,23.438,0
216837.258,48.828,34.180,33.203,66.406,25.391,0
216837.262,45.898,31.738,31.250,67.871,34.180,0
216837.266,45.898,21.484,23.438,37.109,39.551,0
216837.270,41.504,16.113,29.785,25.391,69.824,0
216837.274,34.668,28.320,35.156,38.086,55.664,0
216837.277,37.109,35.645,36.133,47.363,28.809,0
216837.281,38.574,33.203,33.691,39.551,69.336,0
216837.285,41.016,31.738,36.133,38.086,97.168,0
216837.289,39.551,26.367,43.945,38.574,72.754,0
216837.293,36.621,28.809,43.945,34.180,31.250,0
216837.297,47.852,33.691,46.387,49.805,73.730,0
216837.301,45.410,31.738,36.621,58.594,126.953,0
216837.305,30.762,34.668,28.320,41.016,82.031,0
