timestamps,TP9,AF7,AF8,TP10,Right AUX,Estimulo
217087.570,30.762,35.156,60.547,31.250,69.336,2
217087.574,25.391,25.391,55.664,27.344,79.102,0
217087.578,15.625,15.137,37.109,17.578,87.402,0
217087.582,32.227,26.367,46.387,32.227,30.273,0
217087.586,46.387,39.062,48.340,55.176,12.695,0
217087.590,39.062,17.578,31.250,57.129,32.227,0
217087.594,32.715,5.859,53.711,43.945,41.016,0
217087.598,20.508,24.414,65.430,21.484,68.359,0
217087.602,16.113,40.039,47.363,12.207,38.086,0
217087.606,24.902,31.250,37.598,25.879,17.578,0
217087.610,47.852,39.062,42.480,49.805,41.504,0
217087.613,45.898,45.410,50.293,42.480,35.156,0
217087.617,21.973,31.738,39.551,19.043,21.973,0
217087.621,28.809,26.855,41.992,23.438,20.996,0
217087.625,30.273,24.902,41.504,27.832,39.062,0
217087.629,24.414,25.879,40.527,20.508,44.922,0
217087.633,31.738,30.273,52.246,33.203,20.020,0
217087.637,32.227,27.832,38.086,35.645,15.625,0
217087.641,37.598,21.484,31.738,36.621,-1.465,0
217087.645,45.410,22.949,39.551,41.992,-12.207,0
217087.649,52.246,35.645,47.852,42.969,-40.527,0
217087.652,46.875,39.551,52.246,46.875,-51.270,0
217087.656,28.809,33.203,52.246,32.227,-43.457,0
217087.660,19.531,24.902,40.527,19.531,-40.527,0
217087.664,23.926,22.461,42.480,21.484,-35.645,0
217087.668,27.832,29.785,49.805,23.438,-36.621,0
217087.672,28.809,32.715,40.039,20.996,15.625,0
217087.676,32.227,27.832,35.156,27.344,30.762,0
217087.680,27.832,25.391,31.250,29.785,31.250,0
217087.684,25.391,33.691,37.598,29.297,88.379,0
217087.688,20.508,33.203,34.668,30.762,67.871,0
217087.692,23.926,19.043,29.785,29.297,20.508,0
217087.695,27.832,8.301,33.691,24.414,15.625,0
217087.699,20.508,24.414,24.414,34.668,5.859,0
217087.703,12.695,45.898,18.066,45.898,35.156,0
217087.707,6.348,45.898,36.133,21.484,73.730,0
217087.711,7.324,41.504,44.434,2.441,20.996,0
217087.715,4.883,36.133,35.156,4.883,5.859,0
217087.719,6.836,9.766,35.645,12.207,20.508,0
217087.723,28.809,14.160,41.992,32.715,23.438,0
217087.727,19.531,42.480,30.273,22.949,68.848,0
217087.731,-2.930,42.969,27.832,4.395,39.551,0
217087.735,-4.883,37.598,43.457,8.301,-21.484,0
217087.738,-2.441,27.832,42.969,9.766,-25.391,0
217087.742,13.184,15.137,34.668,11.719,4.395,0
217087.746,15.625,7.812,37.109,7.812,54.688,0
217087.750,2.441,22.461,41.992,-0.488,73.730,0
217087.754,4.395,28.809,38.086,4.395,75.684,0
217087.758,23.438,19.531,25.879,17.578,74.219,0
217087.762,27.832,26.367,35.156,17.578,53.223,0
217087.766,12.207,32.227,41.016,12.695,64.453,0
217087.770,11.719,41.016,37.109,14.648,108.887,0
217087.774,20.508,36.621,49.805,9.277,68.359,0
217087.777,21.484,22.461,54.199,7.324,25.391,0
217087.781,18.066,18.555,44.434,16.113,-3.906,0
217087.785,15.137,13.184,25.391,22.461,-27.344,0
217087.789,21.484,20.996,35.156,31.738,42.969,0
217087.793,31.738,48.828,75.195,43.457,71.777,0
217087.797,26.855,58.105,72.266,41.016,50.293,0
217087.801,12.695,40.039,55.176,24.414,52.734,0
217087.805,12.695,20.996,56.641,22.949,72.266,0
217087.809,27.344,23.438,52.734,30.762,75.195,0
217087.813,29.297,35.645,41.504,35.645,6.836,0
217087.817,28.320,33.691,38.574,41.504,5.859,0
217087.820,28.809,19.531,58.105,36.133,57.617,0
217087.824,26.855,12.695,66.895,26.855,30.273,0
217087.828,23.926,23.438,55.176,20.020,23.926,0
217087.832,9.766,30.273,62.500,19.043,13.672,0
217087.836,1.953,18.555,60.547,24.414,24.902,0
217087.840,16.113,16.113,49.805,23.438,29.297,0
217087.844,30.273,30.273,52.734,28.809,20.020,0
217087.848,31.250,41.504,48.828,36.133,71.289,0
217087.852,31.738,30.762,45.898,28.809,77.637,0
217087.856,34.180,18.066,58.105,23.926,65.918,0
217087.860,31.738,19.531,62.500,27.344,44.434,0
217087.863,29.785,15.137,62.012,33.203,42.480,0
217087.867,30.762,16.113,54.199,34.180,29.785,0
217087.871,35.645,40.527,58.105,41.016,21.484,0
217087.875,41.504,56.152,61.035,41.504,35.156,0
217087.879,32.227,42.969,53.711,29.785,40.039,0
217087.883,17.090,20.996,58.594,21.973,41.016,0
217087.887,12.207,11.230,58.105,14.648,32.227,0
217087.891,16.113,22.461,57.129,20.996,29.297,0
217087.895,21.973,33.691,50.293,35.645,6.348,0
217087.899,25.391,27.832,48.340,36.133,-7.324,0
217087.902,26.855,14.648,41.504,34.668,20.508,0
217087.906,33.691,17.578,38.086,41.992,37.109,0
217087.910,46.387,29.785,43.457,52.734,41.504,0
217087.914,44.922,32.227,38.574,59.082,39.062,0
217087.918,33.203,28.320,46.875,47.363,48.828,0
217087.922,34.668,30.273,59.082,42.969,84.961,0
217087.926,34.668,29.297,58.594,43.457,70.312,0
217087.930,29.297,35.156,57.129,30.273,26.367,0
217087.934,37.598,46.875,58.105,38.574,22.949,0
217087.938,33.691,36.621,46.875,40.039,56.641,0
217087.942,37.109,29.785,34.668,41.992,72.266,0
217087.945,62.012,34.180,31.738,79.102,43.457,0
217087.949,48.828,24.414,30.762,64.941,25.391,0
217087.953,19.043,13.672,41.992,21.484,51.758,0
217087.957,32.227,21.973,59.082,35.645,73.242,0
217087.961,39.551,36.133,63.965,40.039,71.289,0
217087.965,33.691,32.715,56.641,27.832,51.270,0
217087.969,37.598,32.227,50.293,34.180,40.527,0
217087.973,41.504,39.062,35.156,41.016,41.504,0
217087.977,41.016,49.805,29.785,39.062,22.461,0
217087.981,33.203,44.922,36.621,35.156,23.438,0
217087.985,30.762,26.367,30.273,42.480,57.617,0
217087.988,35.156,18.066,34.668,51.270,65.918,0
217087.992,29.297,10.742,44.434,51.270,42.969,0
217087.996,23.926,17.578,43.457,39.551,55.664,0
217088.000,25.879,20.508,41.992,19.531,65.918,0
217088.004,20.020,3.418,40.039,5.859,18.555,0
217088.008,20.508,21.484,34.668,17.090,6.836,0
217088.012,29.297,34.180,33.691,32.715,37.598,0
217088.016,39.551,30.762,29.297,41.504,41.992,0
217088.020,44.434,39.062,27.832,39.062,0.000,0
217088.024,41.016,38.574,45.898,38.086,3.906,0
217088.027,35.156,25.879,53.223,35.645,55.176,0
217088.031,32.227,20.020,40.527,44.434,57.129,0
217088.035,33.691,17.578,34.668,48.340,58.105,0
217088.039,25.879,17.578,41.992,24.414,50.293,0
217088.043,20.996,14.648,29.785,20.020,69.824,0
217088.047,35.645,10.254,13.672,28.809,112.305,0
217088.051,40.527,42.480,31.738,32.715,109.375,0
217088.055,30.762,59.570,39.551,32.715,102.051,0
217088.059,32.227,45.898,38.574,45.410,79.102,0
217088.063,42.969,45.898,45.410,50.781,57.617,2
217088.067,44.434,37.598,39.551,31.250,11.719,0
217088.070,29.297,22.461,37.598,17.090,9.766,0
217088.074,23.438,21.484,21.484,20.020,67.871,0
217088.078,27.344,23.438,23.438,32.715,38.574,0
217088.082,37.109,20.996,49.805,41.016,47.363,0
217088.086,40.039,14.160,38.574,43.945,69.824,0
217088.090,40.039,37.598,27.832,48.340,7.812,0
217088.094,37.598,54.688,31.250,39.062,-27.832,0
217088.098,26.855,39.551,38.574,25.391,-20.996,0
217088.102,15.625,35.156,44.434,28.809,-4.395,0
217088.106,18.555,34.668,26.367,27.832,-6.348,0
217088.110,45.898,35.156,41.504,38.574,-30.762,0
217088.113,39.551,38.574,64.941,32.227,-38.574,0
217088.117,15.137,30.762,47.852,12.207,-30.762,0
217088.121,36.133,26.855,35.156,29.297,-12.207,0
217088.125,43.457,31.738,30.762,41.992,3.906,0
217088.129,37.598,21.484,38.574,48.340,5.371,0
217088.133,49.805,20.996,50.781,67.871,29.297,0
217088.137,51.270,51.270,49.316,61.035,56.641,0
217088.141,42.969,54.199,52.246,38.574,21.484,0
217088.145,28.320,36.133,51.758,31.250,0.488,0
217088.149,20.996,27.832,49.316,27.832,6.348,0
217088.152,23.438,26.367,38.574,28.809,6.348,0
217088.156,27.832,20.508,30.273,31.250,3.906,0
217088.160,36.133,19.043,34.180,39.062,12.207,0
217088.164,45.898,27.832,37.109,49.805,64.453,0
217088.168,50.781,32.715,49.316,47.363,86.914,0
217088.172,35.645,17.578,58.105,33.691,60.547,0
217088.176,22.949,10.742,50.293,19.531,41.016,0
217088.180,24.414,31.738,36.133,24.414,62.012,0
217088.184,19.043,37.109,25.879,20.020,45.898,0
217088.188,23.438,36.621,27.344,20.020,19.531,0
217088.192,36.133,32.715,41.992,37.598,67.383,0
217088.195,43.457,25.879,46.875,38.086,78.125,0
217088.199,44.922,32.715,52.246,32.715,81.055,0
217088.203,29.297,34.668,51.758,37.109,52.246,0
217088.207,11.719,25.391,31.738,27.832,23.926,0
217088.211,16.113,26.367,34.668,17.090,70.312,0
217088.215,28.809,24.902,34.668,31.250,56.641,0
217088.219,33.203,22.949,39.062,31.250,16.113,0
217088.223,37.598,40.527,52.246,31.738,62.500,0
217088.227,47.363,30.762,48.828,46.387,74.219,0
217088.231,48.340,21.973,48.340,49.805,7.324,0
217088.235,31.738,31.250,43.457,36.133,-1.465,0
217088.238,32.227,27.832,43.457,33.203,22.949,0
217088.242,45.898,25.879,36.621,44.434,14.648,0
217088.246,41.016,36.621,30.273,45.898,17.578,0
217088.250,36.621,46.875,37.598,34.668,25.879,0
217088.254,33.203,42.969,43.945,24.902,24.902,0
217088.258,38.574,42.969,34.180,27.832,31.738,0
217088.262,53.223,55.664,16.602,41.016,27.344,0
217088.266,36.133,40.039,25.879,28.809,-15.137,0
217088.270,18.555,24.902,54.688,14.648,12.695,0
217088.274,23.438,34.180,66.895,18.066,20.508,0
217088.277,28.809,27.832,59.570,28.320,-5.859,0
217088.281,43.945,10.742,52.246,60.059,27.832,0
217088.285,34.180,19.043,46.875,46.387,48.828,0
217088.289,22.461,23.438,38.086,23.438,20.508,0
217088.293,22.949,26.855,32.227,24.414,37.109,0
217088.297,24.902,34.180,42.969,22.949,51.270,0
217088.301,37.598,27.344,58.105,41.504,40.527,0
217088.305,24.902,17.578,57.129,40.527,34.180,0
217088.309,24.902,34.668,63.965,35.645,10.254,0
217088.313,31.738,32.227,63.965,36.621,27.832,0
217088.317,28.809,20.996,30.273,38.086,60.059,0
217088.320,41.504,45.410,18.066,54.688,38.086,0
217088.324,36.133,46.875,41.992,35.645,24.902,0
217088.328,26.855,25.879,58.594,16.602,24.902,0
217088.332,24.902,23.926,56.641,19.043,37.109,0
217088.336,20.508,36.621,41.504,20.508,50.781,0
217088.340,26.855,36.621,42.480,26.855,50.781,0
217088.344,26.367,13.672,51.758,22.949,51.270,0
217088.348,11.230,6.348,39.551,7.324,24.414,0
217088.352,10.742,47.363,49.805,5.859,-25.879,0
217088.356,-0.977,56.641,62.012,-1.953,27.832,0
217088.360,-15.625,46.875,52.734,-1.953,75.684,0
217088.363,-7.812,64.941,51.270,0.977,16.113,0
217088.367,-19.043,62.500,42.969,-13.184,-17.578,0
217088.371,-41.992,41.504,33.203,-27.832,8.301,0
217088.375,-53.223,39.062,34.180,-45.898,24.414,0
217088.379,-58.105,60.059,25.879,-58.105,11.719,0
217088.383,-77.637,67.383,20.020,-79.590,8.301,0
217088.387,-90.332,70.801,27.832,-91.797,40.527,0
217088.391,-98.633,79.102,31.738,-96.191,53.711,0
217088.395,-117.676,78.125,29.297,-127.441,-5.371,0
217088.399,-136.719,78.125,25.391,-156.250,-28.320,0
217088.402,-145.508,85.938,36.133,-155.273,20.996,0
217088.406,-153.809,83.496,32.227,-162.109,12.695,0
217088.410,-154.785,85.449,24.414,-153.809,-2.930,0
217088.414,-143.555,95.703,42.480,-128.906,-1.953,0
217088.418,-145.508,83.496,35.156,-128.906,-16.602,0
217088.422,-162.598,82.031,5.371,-147.461,-3.906,0
217088.426,-180.176,92.285,25.879,-170.410,-0.977,0
217088.430,-178.223,86.914,59.570,-177.734,-1.953,0
217088.434,-163.574,78.125,58.105,-167.969,0.488,0
217088.438,-162.109,69.336,42.480,-156.738,-9.277,0
217088.442,-156.738,65.918,41.992,-147.461,-37.109,0
217088.445,-142.090,56.641,30.273,-135.742,-10.742,0
217088.449,-129.395,42.480,23.438,-120.605,38.086,0
217088.453,-117.188,45.898,32.715,-104.980,39.062,0
217088.457,-101.074,53.223,39.062,-97.656,58.594,0
217088.461,-82.031,45.898,39.551,-80.566,59.570,0
217088.465,-60.547,36.621,29.785,-52.246,57.129,0
217088.469,-58.105,34.180,2.930,-48.828,16.602,0
217088.473,-57.129,46.387,3.418,-43.457,18.066,0
217088.477,-40.039,53.223,29.297,-40.527,70.801,0
217088.481,-27.832,43.457,28.320,-30.273,44.922,0
217088.485,-20.508,25.879,17.090,-9.766,11.230,0
217088.488,-6.836,32.227,20.020,1.465,20.996,0
217088.492,20.996,49.805,33.203,21.484,55.664,0
217088.496,41.504,48.828,32.227,32.227,73.242,0
217088.500,34.668,29.297,15.625,27.832,39.551,0
217088.504,26.855,4.395,13.672,29.785,19.043,0
217088.508,31.738,1.465,23.438,38.574,19.043,0
217088.512,40.039,13.672,26.367,51.270,40.039,0
217088.516,49.316,17.578,16.602,50.293,42.969,0
217088.520,62.500,21.973,16.602,52.734,38.086,0
217088.524,79.102,33.203,28.320,70.312,65.430,0
217088.527,80.078,29.785,22.949,72.266,69.824,0
217088.531,63.477,9.277,19.531,62.988,52.246,0
217088.535,70.801,0.000,15.625,68.848,35.645,0
217088.539,87.891,3.906,14.160,76.660,64.941,0
217088.543,88.867,7.812,26.855,85.938,41.504,0
217088.547,83.008,20.508,28.809,85.938,28.320,0
217088.551,79.590,20.996,33.203,76.660,62.988,0
217088.555,88.867,20.996,41.992,80.566,77.637,0
217088.559,89.844,14.648,35.156,80.078,27.832,0
217088.563,94.238,-4.395,33.691,86.426,-2.441,0
217088.567,116.699,4.883,29.785,113.770,30.273,0
217088.570,112.793,15.137,19.043,113.281,45.410,0
217088.574,96.191,8.789,31.738,90.820,22.949,0
217088.578,111.328,14.648,47.852,110.840,-20.996,0
217088.582,135.742,28.320,53.711,143.066,47.363,0
217088.586,124.023,23.926,43.457,124.512,84.961,0
217088.590,102.539,-4.395,29.785,100.586,20.996,0
217088.594,108.398,-9.766,43.457,101.562,-0.488,0
217088.598,106.934,1.953,48.828,100.586,62.988,0
217088.602,108.398,14.160,31.250,106.934,59.082,0
217088.606,114.258,27.344,22.949,116.699,15.625,0
217088.610,119.629,35.645,39.062,120.117,27.832,0
217088.613,135.742,19.531,48.340,130.371,61.035,0
217088.617,131.348,2.930,41.504,126.465,46.875,0
217088.621,116.211,17.090,43.945,120.605,6.348,0
217088.625,111.328,32.715,50.781,118.164,11.719,0
217088.629,95.703,18.066,44.922,104.980,34.180,0
217088.633,93.750,9.277,34.668,100.586,49.805,0
217088.637,92.285,22.949,41.016,84.473,5.859,0
217088.641,102.539,28.320,54.688,92.285,-43.457,0
217088.645,121.582,29.297,52.734,119.141,-16.113,0
217088.649,119.141,33.691,50.781,122.070,16.113,0
217088.652,103.516,23.438,49.805,97.168,6.348,0
217088.656,75.684,4.395,29.785,81.055,5.859,1
217088.660,72.754,3.906,15.137,83.984,53.223,0
217088.664,75.684,19.531,35.645,73.242,15.625,0
217088.668,80.566,28.320,60.059,85.938,-41.504,0
217088.672,100.098,26.855,50.781,114.746,-44.434,0
217088.676,103.027,23.438,55.176,104.492,-46.875,0
217088.680,86.914,13.184,61.035,77.148,-66.406,0
217088.684,75.684,20.996,48.340,71.777,-90.820,0
217088.688,73.730,23.438,37.109,74.707,-37.598,0
217088.692,79.590,23.926,30.273,85.938,15.137,0
217088.695,85.449,18.555,33.203,93.750,34.180,0
217088.699,87.891,12.207,38.574,85.938,36.621,0
217088.703,91.797,26.367,43.457,83.008,32.227,0
217088.707,84.961,35.645,37.598,84.473,1.465,0
217088.711,65.430,34.668,32.715,73.242,-6.348,0
217088.715,62.012,19.043,46.875,63.477,42.480,0
217088.719,64.941,8.789,44.922,59.570,52.734,0
217088.723,66.895,10.742,29.297,61.523,53.223,0
217088.727,67.383,7.812,36.133,71.289,41.504,0
217088.731,68.848,26.367,38.086,90.820,18.555,0
217088.735,63.477,40.527,31.250,83.496,19.531,0
217088.738,52.246,25.391,46.387,55.176,-25.391,0
217088.742,54.199,21.973,50.781,51.758,12.207,0
217088.746,54.688,35.156,31.250,56.152,48.340,0
217088.750,42.969,18.066,18.555,47.363,17.090,0
217088.754,37.109,2.441,34.180,40.039,35.156,0
217088.758,54.199,17.578,53.223,50.293,20.508,0
217088.762,55.664,22.949,58.594,56.641,8.301,0
217088.766,50.293,35.645,47.852,55.664,29.297,0
217088.770,52.734,38.574,35.156,56.641,3.906,0
217088.774,46.875,25.879,33.691,45.898,-23.438,0
217088.777,53.711,10.254,28.320,45.410,8.301,0
217088.781,60.547,3.906,12.695,66.406,9.277,0
217088.785,66.406,27.344,26.855,64.941,13.184,0
217088.789,66.406,46.875,64.941,55.176,37.109,0
217088.793,56.641,45.898,66.406,52.246,63.477,0
217088.797,48.828,34.180,49.805,46.387,70.801,0
217088.801,31.250,15.625,26.367,31.738,41.016,0
217088.805,32.227,7.324,27.344,33.203,48.340,0
217088.809,45.410,13.672,39.551,50.293,49.805,0
217088.813,44.922,24.902,20.508,58.594,45.898,0
217088.817,41.016,33.203,32.227,47.852,33.203,0
217088.820,40.527,28.809,53.223,36.133,59.082,0
217088.824,47.363,23.438,52.246,51.270,130.371,0
217088.828,46.387,22.949,53.711,48.340,80.566,0
217088.832,37.109,21.973,39.062,38.086,10.742,0
217088.836,44.434,20.996,20.508,50.781,53.223,0
217088.840,48.828,21.484,30.273,48.340,91.797,0
217088.844,39.551,30.762,38.086,35.156,93.262,0
217088.848,35.645,36.621,28.809,39.551,62.500,0
217088.852,42.969,30.762,35.156,43.457,30.273,0
217088.856,56.641,41.504,53.711,49.316,21.973,0
217088.860,54.199,39.062,52.246,47.852,36.621,0
217088.863,47.363,32.227,36.621,40.039,35.156,0
217088.867,46.387,34.180,16.113,41.016,7.324,0
217088.871,46.387,24.414,12.207,41.016,10.742,0
217088.875,40.039,1.465,29.297,36.133,53.223,0
217088.879,41.992,9.277,37.109,44.922,39.551,0
217088.883,54.688,39.062,31.738,59.570,-12.695,0
217088.887,59.082,48.340,33.203,52.246,-6.348,0
217088.891,58.594,57.129,31.250,55.664,29.785,0
217088.895,49.316,56.641,41.016,58.105,38.574,0
217088.899,31.738,38.574,54.199,32.715,53.711,0
217088.902,37.109,30.273,35.156,30.762,47.363,0
217088.906,41.504,19.043,22.461,30.762,6.836,0
217088.910,31.250,11.719,36.133,30.273,29.297,0
217088.914,35.645,14.648,36.621,54.199,51.270,0
217088.918,42.480,30.273,35.156,58.105,33.691,0
217088.922,48.340,43.457,47.852,49.316,18.555,0
217088.926,45.410,42.969,48.340,48.340,17.090,0
217088.930,35.645,35.156,38.086,40.039,83.496,0
217088.934,34.180,25.879,46.387,41.992,58.594,0
217088.938,27.344,23.438,36.621,31.250,24.414,0
217088.942,30.762,21.973,18.066,17.090,50.781,0
217088.945,40.527,22.461,26.367,31.738,48.340,0
217088.949,43.457,27.832,33.203,46.387,22.461,0
217088.953,43.945,29.785,41.016,40.527,-5.859,0
217088.957,30.762,23.926,41.504,30.273,6.836,0
217088.961,23.926,15.625,36.133,29.785,-12.695,0
217088.965,21.484,19.043,43.945,29.785,-46.875,0
217088.969,34.668,39.062,44.922,44.922,3.906,0
217088.973,36.133,37.598,20.996,43.945,32.227,0
217088.977,25.879,22.461,23.438,37.598,43.457,0
217088.981,28.809,19.531,42.969,44.434,76.660,0
217088.985,34.180,37.109,49.805,43.945,50.781,0
217088.988,33.691,42.969,51.270,37.598,24.902,0
217088.992,26.855,24.902,42.969,32.227,43.457,0
217088.996,34.668,18.066,32.227,45.410,34.668,0
217089.000,35.156,24.414,22.461,52.246,51.270,0
217089.004,32.715,28.809,14.160,52.734,55.176,0
217089.008,43.945,24.902,21.973,56.152,43.457,0
217089.012,35.156,23.438,41.992,32.715,15.137,0
217089.016,17.090,20.996,57.617,12.695,-17.578,0
217089.020,25.879,27.344,58.105,35.156,-4.883,0
217089.024,36.133,27.344,35.645,44.434,6.836,0
217089.027,43.945,25.879,28.809,54.688,12.695,0
217089.031,50.781,27.832,41.504,65.430,17.578,0
217089.035,46.875,29.297,48.828,50.781,45.898,0
217089.039,31.250,28.320,38.086,31.738,27.832,0
217089.043,31.738,27.832,38.574,34.668,22.949,0
217089.047,52.734,34.180,50.293,54.688,43.457,0
217089.051,46.387,29.785,48.340,47.363,16.602,0
217089.055,34.180,29.785,41.504,32.715,0.000,0
217089.059,42.480,38.574,32.715,33.203,-32.715,0
217089.063,41.016,32.715,33.203,33.203,-13.672,0
217089.067,38.086,32.715,36.133,42.480,30.762,0
217089.070,44.434,38.574,23.438,52.246,8.301,0
217089.074,38.086,30.762,25.391,37.598,7.324,0
217089.078,24.902,22.461,36.133,20.020,11.230,0
217089.082,27.832,21.484,59.082,25.391,52.246,0
217089.086,28.320,16.602,69.824,33.691,58.105,0
217089.090,32.715,17.090,53.711,40.527,35.156,0
217089.094,45.898,30.273,41.504,47.852,9.277,0
217089.098,45.898,31.738,23.438,57.617,22.461,0
217089.102,42.480,18.066,13.672,59.082,41.016,0
217089.106,30.762,17.090,38.086,40.039,41.992,0
217089.110,26.367,41.992,67.871,44.922,55.176,0
217089.113,29.785,40.039,64.453,45.898,46.387,0
217089.117,22.949,24.414,45.898,25.391,62.988,0
217089.121,23.438,26.855,45.898,24.902,75.195,0
217089.125,30.273,27.832,50.293,34.668,61.523,0
217089.129,31.738,21.484,41.504,37.109,49.316,0
217089.133,40.039,21.484,37.598,40.527,66.895,0
217089.137,55.176,38.574,37.598,58.594,59.570,0
217089.141,37.598,27.344,34.668,47.852,32.227,0
217089.145,26.367,24.902,41.992,29.785,11.719,0
217089.149,29.785,38.574,49.316,22.949,-3.418,0
217089.152,23.926,21.973,44.922,15.137,11.719,0
217089.156,33.203,19.531,40.039,34.668,-6.348,0
217089.160,40.527,32.715,29.785,42.969,-17.578,0
217089.164,41.504,32.227,25.391,30.762,5.371,0
217089.168,47.363,36.133,30.762,39.062,-2.441,0
217089.172,36.133,33.203,33.203,31.250,-2.441,0
217089.176,29.785,23.926,41.016,22.461,37.598,0
217089.180,35.156,16.602,44.434,30.762,57.129,0
217089.184,41.016,19.043,47.363,39.062,74.219,0
217089.188,45.410,30.273,36.133,46.875,79.102,0
217089.192,49.805,38.086,32.715,43.457,23.438,0
217089.195,51.758,40.039,48.828,36.621,15.137,0
217089.199,48.828,40.527,53.223,44.434,49.316,0
217089.203,45.898,41.504,45.410,45.898,28.320,1
217089.207,40.527,31.738,45.410,34.668,33.691,0
217089.211,38.086,25.879,41.016,33.203,32.715,0
217089.215,39.062,17.578,19.531,41.016,11.719,0
217089.219,35.645,19.531,31.738,41.504,40.527,0
217089.223,36.133,24.902,43.457,38.086,84.473,0
217089.227,44.434,27.344,38.574,41.992,113.770,0
217089.231,50.781,41.016,43.457,47.363,45.898,0
217089.235,50.293,47.852,44.922,40.527,-37.598,0
217089.238,47.852,38.086,40.527,35.645,-31.738,0
217089.242,41.016,19.043,31.250,34.668,-5.859,0
217089.246,39.551,10.742,33.691,30.762,3.418,0
217089.250,43.457,23.926,42.480,31.250,-17.578,0
217089.254,40.527,31.250,36.621,39.551,-3.906,0
217089.258,41.016,34.668,40.039,48.828,52.734,0
217089.262,38.574,42.969,40.527,39.551,49.316,0
217089.266,33.691,36.133,25.879,25.879,10.742,0
217089.270,39.062,29.785,29.785,34.668,39.062,0
217089.274,37.109,36.133,37.109,38.086,46.387,0
217089.277,33.691,30.762,40.039,38.086,10.254,0
217089.281,38.574,29.297,23.926,35.156,-20.020,0
217089.285,40.039,27.832,11.230,28.320,28.320,0
217089.289,37.598,19.531,31.738,37.598,90.820,0
217089.293,38.086,32.227,47.363,39.062,77.637,0
217089.297,34.180,39.062,46.875,24.902,53.223,0
217089.301,37.598,28.809,48.340,25.391,37.109,0
217089.305,41.992,21.973,41.992,31.250,51.758,0
217089.309,41.504,34.180,31.738,29.785,18.066,0
217089.313,48.340,36.621,35.645,34.668,23.438,0
217089.317,43.945,23.926,39.062,38.574,52.734,0
217089.320,31.250,24.414,44.922,35.156,68.848,0
217089.324,26.855,25.879,46.387,27.832,48.340,0
217089.328,33.691,31.250,40.527,21.973,21.484,0
217089.332,31.250,35.156,40.527,27.832,38.086,0
217089.336,32.715,30.273,48.828,37.109,43.457,0
217089.340,31.250,32.715,56.641,41.504,32.227,0
217089.344,28.809,33.203,53.711,37.598,46.875,0
217089.348,23.926,21.484,42.969,30.273,104.004,0
217089.352,23.438,18.555,33.691,35.645,119.141,0
217089.356,32.227,27.344,19.531,40.527,83.008,0
217089.360,37.598,32.227,29.785,37.598,86.914,0
217089.363,45.410,34.180,56.641,39.062,67.871,0
217089.367,38.086,30.762,60.547,35.156,52.734,0
217089.371,34.180,22.461,58.594,26.367,61.523,0
217089.375,29.785,19.531,60.547,24.414,44.434,0
217089.379,24.414,23.926,58.105,24.414,35.645,0
217089.383,41.016,30.762,56.641,26.855,48.828,0
217089.387,47.852,35.156,50.781,23.438,24.902,0
217089.391,44.922,33.203,46.387,21.484,9.766,0
217089.395,46.875,31.738,54.688,32.715,66.895,0
217089.399,47.363,31.738,48.340,27.832,68.359,0
217089.402,49.805,34.668,54.199,22.949,36.621,0
217089.406,51.270,38.086,69.336,26.367,55.176,0
217089.410,37.598,35.156,66.406,22.461,63.965,0
217089.414,31.250,30.762,66.406,26.855,44.434,0
217089.418,42.969,26.855,65.430,34.180,58.594,0
217089.422,38.574,26.367,62.500,31.738,68.848,0
217089.426,21.484,16.602,57.617,31.250,50.781,0
217089.430,13.672,20.996,59.570,45.898,16.113,0
217089.434,10.742,33.691,64.941,50.293,-11.230,0
217089.438,13.184,35.645,72.266,63.477,27.832,0
217089.442,15.625,36.621,68.848,74.707,32.715,0
217089.445,21.973,32.227,59.082,50.781,-2.441,0
217089.449,25.879,28.320,65.430,39.551,8.789,0
217089.453,16.113,25.391,74.707,36.133,51.270,0
217089.457,29.297,36.621,65.430,26.367,55.176,0
217089.461,48.828,41.504,62.012,10.742,20.508,0
217089.465,49.805,33.203,66.406,-2.930,32.715,0
217089.469,53.223,34.668,57.617,2.930,71.289,0
217089.473,57.617,33.691,41.016,11.230,58.594,0
217089.477,73.730,20.508,43.945,17.578,4.883,0
217089.481,88.867,24.414,44.434,25.391,-10.254,0
217089.485,87.402,50.781,34.668,35.645,19.043,0
217089.488,61.523,57.129,42.969,25.391,19.531,0
217089.492,40.527,41.992,61.523,29.785,32.715,0
217089.496,35.645,27.344,59.082,54.199,58.594,0
217089.500,22.949,22.949,46.875,53.223,53.711,0
217089.504,32.227,35.156,48.340,41.504,40.039,0
217089.508,23.926,38.086,45.410,41.992,29.785,0
217089.512,29.785,36.621,26.367,42.969,36.133,0
217089.516,46.875,36.133,5.371,50.781,32.227,0
217089.520,53.223,39.551,13.672,41.992,18.555,0
217089.524,46.875,45.410,37.598,50.781,19.531,0
217089.527,41.504,28.809,36.621,28.809,49.316,0
217089.531,38.574,5.859,31.738,26.855,54.199,0
217089.535,30.273,13.184,24.414,44.922,34.668,0
217089.539,35.645,22.949,7.324,37.109,47.852,0
217089.543,39.062,19.531,19.531,29.297,71.289,0
217089.547,24.902,22.949,29.297,0.000,57.129,0
217089.551,45.898,32.715,22.949,-1.953,36.621,0
217089.555,61.523,31.738,10.254,16.113,-13.672,0
217089.559,49.316,26.367,4.395,38.574,-29.785,0
217089.563,50.293,26.367,-1.953,41.992,-3.418,0
217089.567,42.969,12.695,-8.301,34.668,-2.930,0
217089.570,38.086,18.066,-15.137,31.250,7.812,0
217089.574,28.320,31.738,-27.344,3.906,8.301,0
217089.578,23.438,28.320,-23.438,34.180,0.000,0
217089.582,41.016,35.645,-43.945,36.621,8.789,0
217089.586,24.902,36.621,-46.875,33.203,35.156,0
217089.590,-8.301,30.273,-14.160,98.145,37.598,0
217089.594,17.090,32.715,-16.602,46.875,30.273,0
217089.598,43.457,32.715,-27.344,-13.184,42.480,0
217089.602,47.363,35.156,-13.672,-22.461,32.227,0
217089.606,49.805,27.344,-1.465,-43.945,41.992,0
217089.610,35.156,17.090,-7.812,-62.500,25.391,0
217089.613,42.480,20.020,-9.766,-52.734,-17.090,0
217089.617,48.340,24.902,-3.906,27.832,-16.113,0
217089.621,41.992,21.973,-1.465,-3.418,38.086,0
217089.625,49.316,25.879,-35.156,-50.781,53.223,0
217089.629,45.898,29.785,-62.012,-78.125,7.812,0
217089.633,17.090,20.996,-16.113,-32.715,7.324,0
217089.637,47.363,17.578,-13.672,21.973,39.551,0
217089.641,52.246,27.832,-65.918,-5.371,34.180,0
217089.645,53.711,48.340,-67.871,14.160,69.336,0
217089.649,31.250,28.809,-33.203,31.250,99.609,0
217089.652,6.836,24.414,-16.113,11.719,56.152,0
217089.656,7.324,23.926,1.953,54.199,33.691,0
217089.660,14.648,17.090,-5.371,70.801,24.902,0
217089.664,17.090,25.879,-6.836,56.641,55.176,0
217089.668,9.766,26.367,8.301,51.270,72.754,0
217089.672,8.789,22.461,1.953,23.438,47.363,0
217089.676,1.953,17.578,-17.090,15.137,47.852,0
217089.680,-0.488,18.555,-18.066,11.719,108.398,0
217089.684,3.906,25.391,-5.859,29.785,102.051,0
217089.688,1.953,28.320,-12.695,47.363,56.152,0
217089.692,9.277,21.484,-16.113,-2.441,66.895,0
217089.695,10.742,19.043,-14.160,29.785,63.965,0
217089.699,0.000,30.273,-20.020,73.242,55.176,0
217089.703,25.879,41.504,-23.926,70.312,63.965,0
217089.707,37.598,35.645,-17.090,83.984,34.180,0
217089.711,15.625,14.648,-7.324,76.172,39.062,0
217089.715,15.137,18.066,-4.883,57.617,23.438,0
217089.719,26.367,24.414,-4.395,62.500,-17.578,0
217089.723,50.293,20.508,-11.719,72.266,18.066,0
217089.727,33.691,23.926,-14.648,94.238,-6.836,0
217089.731,34.180,29.297,-7.324,92.285,-26.367,0
217089.735,37.109,25.879,0.977,83.496,-10.254,0
217089.738,14.160,22.461,-17.090,99.121,-15.625,0
217089.742,32.227,29.785,-29.785,92.285,20.508,0
217089.746,53.711,21.484,-5.859,86.426,9.766,0
217089.750,50.293,4.883,-4.883,69.336,11.719,2
217089.754,46.387,20.020,-9.277,60.059,26.367,0
217089.758,26.367,32.227,-12.695,78.613,52.246,0
217089.762,21.973,32.715,1.953,84.961,38.086,0
217089.766,36.133,33.203,19.531,79.590,20.508,0
217089.770,26.855,19.043,9.277,78.125,63.965,0
217089.774,8.301,19.531,0.977,67.383,56.152,0
217089.777,6.348,27.832,-5.859,63.965,41.016,0
217089.781,20.508,31.250,0.488,69.336,18.555,0
217089.785,41.504,32.715,2.441,62.500,-4.395,0
217089.789,40.527,34.668,-7.812,23.438,31.738,0
217089.793,44.434,34.180,2.441,0.488,44.922,0
217089.797,47.363,29.297,8.789,48.828,54.688,0
217089.801,58.105,30.762,6.348,84.961,53.223,0
217089.805,67.871,34.180,-1.465,62.012,16.602,0
217089.809,54.199,32.715,-1.953,39.551,15.137,0
217089.813,57.617,28.320,7.812,40.527,24.414,0
217089.817,71.289,27.344,23.438,54.688,32.227,0
217089.820,63.477,28.320,32.227,65.430,19.043,0
217089.824,55.664,32.227,41.016,42.480,3.418,0
217089.828,42.480,30.762,40.527,34.180,28.809,0
217089.832,37.598,31.738,24.902,41.504,36.621,0
217089.836,39.062,45.898,23.438,28.809,29.297,0
217089.840,29.785,38.574,21.973,19.043,33.203,0
217089.844,34.180,22.949,9.766,35.156,8.789,0
217089.848,42.480,27.832,14.160,48.340,32.227,0
217089.852,53.223,41.016,24.902,48.340,31.250,0
217089.856,66.406,31.250,24.902,55.176,16.602,0
217089.860,62.988,30.273,19.043,56.152,33.203,0
217089.863,33.203,45.898,19.043,47.852,-3.906,0
217089.867,24.414,43.945,43.945,16.113,-21.973,0
217089.871,44.922,46.875,44.434,-2.441,-12.695,0
217089.875,41.504,41.992,38.574,31.250,12.695,0
217089.879,20.020,26.367,44.434,46.387,27.344,0
217089.883,30.273,19.531,37.109,42.969,10.254,0
217089.887,47.363,27.344,46.875,63.965,15.625,0
217089.891,43.457,31.738,41.504,64.453,40.039,0
217089.895,26.855,32.715,9.277,20.508,33.203,0
217089.899,22.461,39.551,29.297,10.254,9.277,0
217089.902,42.969,46.875,58.594,50.781,14.160,0
217089.906,32.227,55.664,51.758,53.711,43.457,0
217089.910,5.371,49.316,39.062,24.414,47.363,0
217089.914,28.809,33.203,46.875,44.922,15.137,0
217089.918,66.895,34.180,44.922,60.059,23.438,0
217089.922,57.617,36.621,30.273,30.273,44.434,0
217089.926,29.785,31.250,20.996,35.645,44.434,0
217089.930,14.648,40.039,17.090,42.480,54.199,0
217089.934,36.133,53.711,14.648,61.523,44.922,0
217089.938,50.781,49.805,19.531,73.730,23.438,0
217089.942,50.781,42.480,35.645,43.945,-8.301,0
217089.945,45.898,44.922,43.457,43.945,27.344,0
217089.949,37.598,42.480,31.250,50.293,55.176,0
217089.953,34.180,40.039,29.785,50.781,26.367,0
217089.957,27.832,34.668,39.062,7.812,44.434,0
217089.961,30.762,29.785,28.809,-12.695,40.039,0
217089.965,15.137,29.297,16.113,21.973,13.672,0
217089.969,10.742,26.367,17.090,31.738,6.348,0
217089.973,20.020,22.949,21.973,40.527,34.180,0
217089.977,24.414,43.457,28.320,64.941,55.664,0
217089.981,52.246,57.617,17.578,69.336,48.828,0
217089.985,55.664,43.945,11.719,56.641,34.180,0
217089.988,42.480,31.250,24.414,20.996,11.230,0
217089.992,44.922,26.855,26.367,17.578,46.875,0
217089.996,22.949,31.738,34.180,39.062,51.758,0
217090.000,17.578,38.574,36.133,-2.930,25.391,0
217090.004,20.996,36.621,29.785,7.324,35.156,0
217090.008,16.113,41.016,23.926,44.434,43.457,0
217090.012,24.902,36.621,24.414,39.062,44.922,0
217090.016,25.391,20.996,15.625,45.898,49.316,0
217090.020,44.434,28.809,17.578,50.781,42.480,0
217090.024,43.945,34.668,32.715,59.082,13.184,0
217090.027,28.320,32.227,26.855,70.801,-2.441,0
217090.031,26.367,30.273,20.020,38.574,-47.852,0
217090.035,36.133,25.391,13.184,35.156,-86.426,0
217090.039,44.434,21.973,20.508,40.039,-43.457,0
217090.043,43.945,28.809,33.691,34.180,-16.602,0
217090.047,59.570,24.414,11.719,42.969,-7.324,0
217090.051,49.805,25.391,14.648,66.406,3.418,0
217090.055,37.598,44.922,24.902,43.945,-14.648,0
217090.059,50.781,53.223,36.621,46.875,-23.438,0
217090.063,49.805,44.922,45.410,64.941,4.883,0
217090.067,26.855,25.879,32.715,34.668,-1.953,0
217090.070,13.672,29.297,20.508,13.672,28.809,0
217090.074,28.320,26.367,22.461,26.855,42.969,0
217090.078,22.949,18.066,17.578,39.062,-12.207,0
217090.082,10.742,30.762,9.277,27.832,-20.020,0
217090.086,32.227,37.109,30.762,54.688,26.855,0
217090.090,36.621,28.809,33.691,32.715,46.875,0
217090.094,39.062,17.578,36.133,15.625,67.871,0
217090.098,35.156,-2.930,45.898,61.035,65.430,0
217090.102,32.715,15.137,32.715,55.664,57.129,0
217090.106,39.062,44.434,16.602,39.551,90.332,0
217090.110,33.203,45.410,7.324,19.043,116.211,0
217090.113,30.762,46.387,-0.977,45.898,110.352,0
217090.117,28.320,33.203,13.672,89.355,83.008,0
217090.121,31.250,26.855,41.992,66.406,67.383,0
217090.125,33.203,42.969,56.152,20.508,41.504,0
217090.129,36.133,41.504,57.617,30.762,17.578,0
217090.133,35.156,24.414,50.781,56.152,24.902,0
217090.137,46.387,29.297,39.551,50.781,11.719,0
217090.141,48.828,39.551,22.461,56.152,21.484,0
217090.145,49.316,34.668,26.855,49.316,49.316,0
217090.149,45.410,34.180,33.203,31.738,5.371,0
217090.152,31.250,22.461,36.133,53.223,20.020,0
217090.156,37.598,17.578,39.551,60.547,51.270,0
217090.160,45.898,40.527,40.039,65.918,24.902,0
217090.164,32.227,57.129,36.133,63.477,40.527,0
217090.168,22.461,54.688,48.828,29.785,26.367,0
217090.172,30.762,39.062,46.387,22.461,27.344,0
217090.176,24.414,27.344,47.363,41.992,39.551,0
217090.180,36.133,34.180,50.781,63.965,-29.297,0
217090.184,43.457,31.250,38.574,49.805,-53.711,0
217090.188,41.992,28.320,40.039,41.016,31.250,0
217090.192,36.133,30.762,34.180,40.039,79.590,0
217090.195,27.832,26.367,36.133,43.945,33.203,0
217090.199,55.664,35.645,29.297,57.129,25.391,0
217090.203,66.895,47.363,38.574,57.129,97.168,0
217090.207,42.969,40.039,46.875,41.504,93.750,0
217090.211,30.273,30.273,41.016,48.828,80.078,0
217090.215,33.691,34.180,36.621,51.270,67.383,0
217090.219,49.316,44.922,39.062,51.758,51.758,0
217090.223,34.180,41.016,40.527,50.293,59.082,0
217090.227,26.855,33.203,26.367,37.598,34.180,0
217090.231,42.480,29.297,32.227,52.734,27.344,0
217090.235,42.969,29.785,41.016,51.270,36.621,0
217090.238,61.523,37.109,39.551,32.715,41.016,0
217090.242,49.316,27.832,49.316,59.082,92.285,0
217090.246,31.738,17.578,50.781,56.152,114.258,0
217090.250,31.250,18.066,49.805,57.617,84.961,0
217090.254,40.039,24.414,37.109,52.246,64.941,0
217090.258,44.922,32.715,37.109,41.016,66.406,0
217090.262,45.898,32.227,49.805,40.527,62.500,0
217090.266,38.574,33.691,36.133,21.973,45.898,0
217090.270,39.062,39.062,19.043,30.273,-2.441,0
217090.274,63.965,40.039,24.902,41.992,-30.273,0
217090.277,44.922,32.227,37.109,37.109,13.672,0
217090.281,38.574,31.738,36.133,26.367,47.852,0
217090.285,40.039,31.738,35.156,48.340,28.809,0
217090.289,26.367,28.809,39.062,48.340,28.320,1
217090.293,40.527,30.762,35.156,30.762,48.340,0
217090.297,39.551,27.832,32.715,39.062,73.730,0
217090.301,42.969,35.645,38.574,51.270,78.613,0
217090.305,46.875,47.852,40.527,51.758,71.289,0
217090.309,21.484,38.086,29.297,29.785,33.203,0
217090.313,26.855,29.297,34.668,12.695,6.348,0
217090.317,49.805,29.297,42.969,1.953,47.852,0
217090.320,28.320,18.066,42.969,20.996,61.523,0
217090.324,15.137,19.043,32.715,37.598,60.547,0
217090.328,19.043,29.785,21.973,39.062,35.156,0
217090.332,20.508,31.250,24.414,30.273,41.992,0
217090.336,30.273,36.133,39.551,20.508,53.223,0
217090.340,28.320,40.039,47.852,40.527,37.109,0
217090.344,48.340,42.969,37.598,60.059,38.086,0
217090.348,62.012,39.551,40.527,64.941,39.551,0
217090.352,35.156,36.621,44.434,53.711,55.176,0
217090.356,21.973,37.598,40.527,26.367,59.082,0
217090.360,36.133,34.668,42.969,40.527,39.062,0
217090.363,38.574,30.762,45.898,77.148,33.203,0
217090.367,29.297,23.438,54.199,78.613,40.039,0
217090.371,21.973,23.926,58.105,54.199,36.133,0
217090.375,31.738,30.273,55.664,46.875,35.156,0
217090.379,40.527,33.203,49.316,41.504,29.297,0
217090.383,36.621,35.156,48.340,29.785,54.688,0
217090.387,59.082,44.922,34.668,22.949,69.824,0
217090.391,68.848,46.387,27.832,-2.930,50.293,0
217090.395,65.430,39.062,40.527,4.883,61.523,0
217090.399,63.477,35.645,40.527,22.461,72.754,0
217090.402,63.965,31.738,42.480,27.832,27.344,0
217090.406,65.430,28.809,43.945,33.203,1.953,0
217090.410,48.828,39.551,40.039,38.574,44.434,0
217090.414,39.551,48.340,34.668,55.176,77.148,0
217090.418,47.852,45.898,38.574,47.852,43.457,0
217090.422,59.082,41.504,48.340,40.039,35.645,0
217090.426,62.988,40.527,49.316,66.895,39.551,0
217090.430,44.434,33.691,29.785,87.891,24.414,0
217090.434,52.734,38.086,46.387,87.891,22.461,0
217090.438,64.453,47.852,53.223,52.734,8.301,0
217090.442,47.852,30.762,52.246,41.504,4.395,0
217090.445,36.621,23.438,68.848,55.664,60.547,0
217090.449,39.062,37.109,42.969,25.391,41.504,0
217090.453,16.113,29.785,46.387,29.297,1.953,0
217090.457,20.020,41.992,49.805,64.453,-4.395,0
217090.461,37.109,56.641,40.527,60.059,-11.230,0
217090.465,43.457,44.434,52.734,41.504,-19.043,0
217090.469,53.223,36.133,57.617,45.410,-7.324,0
217090.473,44.922,30.762,61.035,48.828,27.832,0
217090.477,53.223,40.527,38.574,23.438,24.902,0
217090.481,53.223,25.391,34.180,54.199,47.852,0
217090.485,55.176,23.926,28.809,51.270,35.156,0
217090.488,49.805,44.434,39.551,-4.395,9.277,0
217090.492,47.363,41.504,46.387,15.137,-11.719,0
217090.496,39.062,38.574,27.832,61.035,-43.457,0
217090.500,15.625,40.527,34.668,79.102,-9.766,0
217090.504,30.762,43.457,39.062,93.750,-17.090,0
217090.508,41.992,31.250,26.367,70.801,-21.973,0
217090.512,34.180,30.762,17.090,20.020,-7.324,0
217090.516,56.152,50.781,18.555,41.992,-22.461,0
217090.520,76.172,56.152,19.531,54.688,-11.230,0
217090.524,37.598,48.340,20.996,5.371,-23.926,0
217090.527,23.926,40.039,28.320,24.414,-19.043,0
217090.531,51.270,42.969,16.113,66.406,37.109,0
217090.535,38.086,45.898,-12.207,4.883,22.461,0
217090.539,33.203,37.109,-3.906,1.953,30.273,0
217090.543,27.344,32.715,15.625,45.898,41.992,0
217090.547,-5.859,19.043,44.434,29.785,1.953,0
217090.551,7.324,21.484,57.129,33.691,-4.395,0
217090.555,33.203,37.598,56.641,47.363,-1.465,0
217090.559,8.301,36.621,59.570,43.457,29.785,0
217090.563,-15.625,31.250,44.922,61.523,67.383,0
217090.567,22.949,46.387,35.156,66.406,56.152,0
217090.570,44.922,57.617,22.461,57.617,15.137,0
217090.574,17.578,56.152,15.137,49.316,20.996,0
217090.578,15.625,48.340,20.020,15.625,67.383,0
217090.582,48.340,39.551,22.461,3.906,70.801,0
217090.586,20.996,37.598,20.020,19.043,58.594,0
217090.590,1.465,40.039,12.207,45.410,55.664,0
217090.594,36.621,42.969,11.230,19.531,57.129,0
217090.598,39.551,45.898,19.531,6.348,32.715,0
217090.602,43.457,55.664,3.906,42.480,8.301,0
217090.606,46.875,42.969,2.930,57.129,16.113,0
217090.610,40.527,36.621,-2.930,47.363,38.574,0
217090.613,32.715,32.227,21.484,48.340,89.844,0
217090.617,34.668,23.926,55.664,68.359,58.594,0
217090.621,53.223,45.410,41.992,30.273,20.996,0
217090.625,34.180,51.758,22.949,20.508,78.613,0
217090.629,16.602,49.805,0.488,2.930,83.984,0
217090.633,31.738,48.828,2.441,31.250,55.176,0
217090.637,46.387,47.363,25.879,61.523,83.496,0
217090.641,55.176,52.734,8.301,24.414,83.984,0
217090.645,68.848,50.781,0.977,29.785,68.359,0
217090.649,39.062,39.062,10.254,10.742,62.012,0
217090.652,25.879,35.645,31.250,5.859,41.504,0
217090.656,24.414,38.086,44.434,49.805,33.691,0
217090.660,6.836,32.715,31.250,11.230,42.480,0
217090.664,8.301,22.949,28.809,0.977,61.523,0
217090.668,14.160,23.926,39.551,53.711,52.246,0
217090.672,29.297,30.273,39.551,37.109,27.344,0
217090.676,36.133,39.062,20.020,16.113,-0.977,0
217090.680,27.832,33.203,28.320,33.203,11.230,0
217090.684,36.133,19.043,34.668,57.129,20.020,0
217090.688,31.250,29.297,21.484,33.203,-22.461,0
217090.692,29.785,34.180,41.992,28.320,-14.160,0
217090.695,50.781,37.598,55.176,37.598,3.418,0
217090.699,29.785,49.316,42.969,22.461,8.789,0
217090.703,33.203,40.039,41.016,49.316,-10.254,0
217090.707,64.453,36.621,33.203,45.898,-60.059,0
217090.711,45.410,36.621,41.504,17.578,-60.547,0
217090.715,45.410,30.762,45.410,45.410,-35.645,0
217090.719,65.918,39.551,27.344,33.691,-35.156,0
217090.723,62.988,47.363,33.203,22.461,-34.180,0
217090.727,74.707,42.480,53.223,53.711,-27.344,0
217090.731,60.547,16.602,48.828,18.066,-54.199,0
217090.735,29.785,13.672,48.340,20.996,-84.961,0
217090.738,41.016,52.246,57.129,28.809,-87.891,0
217090.742,25.879,57.129,42.480,3.906,-43.457,0
217090.746,13.672,45.898,19.531,16.602,27.832,0
217090.750,22.949,54.199,19.531,7.812,50.781,0
217090.754,49.805,58.105,21.484,15.137,60.059,0
217090.758,60.059,47.363,28.809,58.594,77.637,0
217090.762,45.410,32.715,29.785,50.293,68.848,0
217090.766,45.410,41.504,34.668,15.625,68.848,0
217090.770,45.410,52.246,48.340,32.715,49.316,0
217090.774,30.762,50.781,51.758,54.688,39.551,0
217090.777,15.625,46.875,32.715,22.949,59.570,0
217090.781,34.180,39.551,18.066,13.672,7.812,0
217090.785,38.086,43.457,29.297,18.555,-21.484,0
217090.789,18.555,50.293,50.293,41.504,35.156,0
217090.793,9.766,46.875,47.852,62.500,44.434,0
217090.797,15.625,35.645,25.879,23.926,38.086,0
217090.801,38.086,36.133,38.574,33.691,41.016,0
217090.805,43.457,49.316,45.898,40.527,38.574,0
217090.809,34.668,54.688,41.504,18.555,52.246,0
217090.813,15.625,39.062,46.875,31.738,68.848,0
217090.817,9.277,21.484,54.199,16.602,62.500,0
217090.820,25.391,29.785,46.387,27.344,37.598,0
217090.824,47.852,52.734,24.414,64.941,18.555,0
217090.828,46.875,61.035,23.926,38.086,5.371,0
217090.832,36.133,58.105,47.852,32.715,34.180,0
217090.836,41.992,57.129,43.945,62.500,58.594,0
217090.840,42.969,47.363,42.480,70.801,20.508,0
217090.844,20.020,34.180,41.992,26.855,41.504,0
217090.848,-3.418,28.320,30.273,18.066,62.012,0
217090.852,26.367,24.414,26.367,6.836,19.043,0
217090.856,41.016,17.090,30.762,20.020,21.973,0
217090.860,26.367,31.738,25.391,55.664,33.691,0
217090.863,26.367,64.453,20.020,49.316,34.180,0
217090.867,13.672,63.965,42.969,36.133,52.246,0
217090.871,10.254,48.340,54.688,26.855,72.266,0
217090.875,32.227,63.477,47.852,42.969,87.402,0
217090.879,27.832,62.988,46.875,23.926,82.520,0
217090.883,10.254,45.898,44.434,0.977,56.152,0
217090.887,12.695,45.898,25.879,-6.348,57.129,0
217090.891,27.832,54.688,30.273,27.832,29.297,0
217090.895,39.551,51.270,38.086,62.012,-3.906,0
217090.899,20.020,33.203,29.785,52.246,7.324,0
217090.902,15.625,23.438,33.203,20.508,7.812,0
217090.906,11.719,30.273,25.879,20.020,9.766,0
217090.910,22.461,41.016,31.250,54.688,0.000,0
217090.914,52.734,54.199,48.828,60.059,54.688,0
217090.918,53.711,61.523,49.316,11.230,87.891,0
217090.922,51.758,71.289,43.945,17.578,88.867,0
217090.926,41.504,74.707,34.180,45.410,101.562,0
217090.930,20.508,53.223,43.945,22.949,48.340,0
217090.934,38.086,38.086,48.340,20.996,-3.906,0
217090.938,42.480,42.480,38.086,14.160,39.062,0
217090.942,35.156,46.387,30.762,2.930,47.852,0
217090.945,39.551,46.387,41.016,45.898,40.039,0
217090.949,44.434,42.480,52.246,40.039,24.902,0
217090.953,23.438,29.785,41.504,16.113,13.672,0
217090.957,27.832,20.508,20.020,21.484,52.246,0
217090.961,47.852,20.020,34.180,20.508,56.641,0
217090.965,20.996,32.715,36.133,21.973,34.180,0
217090.969,32.715,58.594,16.113,26.855,14.160,0
217090.973,37.109,65.430,34.668,58.105,36.133,0
217090.977,28.320,55.664,39.551,53.223,26.367,0
217090.981,26.855,68.359,35.156,34.668,23.438,0
217090.985,43.457,73.730,46.387,74.707,60.059,0
217090.988,42.969,45.410,46.387,57.617,38.574,0
217090.992,29.785,29.785,37.109,37.109,43.945,0
217090.996,31.250,27.344,36.621,75.684,55.176,0
217091.000,29.785,34.180,15.625,42.969,39.551,0
217091.004,58.594,41.992,20.020,27.832,12.207,1
217091.008,22.949,46.387,61.035,52.246,31.250,0
217091.012,29.297,56.641,60.547,41.504,53.711,0
217091.016,21.973,45.898,44.922,36.621,47.363,0
217091.020,-13.184,33.203,40.527,44.434,24.902,0
217091.024,40.527,37.598,38.086,42.969,-22.949,0
217091.027,49.805,46.387,36.621,22.461,15.625,0
217091.031,33.691,50.293,33.203,49.316,65.918,0
217091.035,61.523,54.199,18.066,67.383,55.176,0
217091.039,69.336,60.059,30.762,71.777,32.715,0
217091.043,47.852,53.711,51.758,56.641,47.363,0
217091.047,47.852,48.828,47.363,45.898,74.219,0
217091.051,31.738,33.691,60.547,48.340,38.086,0
217091.055,42.969,28.320,63.965,42.480,50.293,0
217091.059,41.992,43.945,49.805,68.359,30.273,0
217091.063,44.434,50.781,39.551,78.613,17.578,0
217091.067,67.871,58.105,17.578,58.105,30.762,0
217091.070,48.340,50.293,34.180,59.570,-17.578,0
217091.074,34.668,49.316,48.340,36.621,16.602,0
217091.078,22.461,49.805,41.016,31.738,54.688,0
217091.082,36.133,42.480,39.062,42.969,67.383,0
217091.086,62.500,44.922,35.645,41.016,76.172,0
217091.090,53.223,41.016,44.434,58.594,30.273,0
217091.094,39.551,41.504,37.598,64.941,29.297,0
217091.098,28.320,44.922,30.762,51.758,60.059,0
217091.102,40.527,53.711,40.527,47.363,86.914,0
217091.106,41.016,66.895,49.805,63.477,77.637,0
217091.110,52.734,65.918,47.852,55.664,7.812,0
217091.113,65.918,65.430,53.711,60.547,4.395,0
217091.117,58.105,65.918,41.016,67.871,43.457,0
217091.121,41.992,52.734,38.574,69.336,27.832,0
217091.125,16.113,32.227,44.922,23.926,5.859,0
217091.129,17.090,21.484,29.297,-1.953,18.555,0
217091.133,36.621,44.434,27.832,47.363,27.344,0
217091.137,38.086,44.434,37.598,50.781,42.969,0
217091.141,19.043,28.809,34.180,21.484,46.387,0
217091.145,22.949,48.828,30.762,26.855,31.738,0
217091.149,73.730,54.688,45.898,55.176,14.648,0
217091.152,57.129,32.227,50.781,34.180,2.441,0
217091.156,12.695,11.230,40.039,-4.395,18.066,0
217091.160,17.578,17.578,26.855,16.602,41.504,0
217091.164,22.461,35.645,32.715,47.852,58.594,0
217091.168,31.250,55.176,37.598,35.156,62.988,0
217091.172,39.551,59.082,35.645,14.648,66.406,0
217091.176,38.574,53.223,42.480,21.484,87.402,0
217091.180,38.086,50.781,54.688,42.480,88.379,0
217091.184,47.363,44.434,51.758,39.062,47.363,0
217091.188,42.969,46.387,41.504,25.391,24.902,0
217091.192,30.762,47.852,41.504,46.875,13.672,0
217091.195,55.664,54.199,46.387,59.082,26.855,0
217091.199,61.035,39.062,38.086,53.223,5.859,0
217091.203,52.734,29.785,20.020,49.316,-35.156,0
217091.207,30.273,44.922,31.738,43.457,-17.578,0
217091.211,17.090,41.016,50.293,39.062,-4.883,0
217091.215,45.410,40.039,54.199,29.297,-24.414,0
217091.219,53.711,49.805,45.410,31.738,-16.602,0
217091.223,52.246,49.805,39.062,55.176,13.672,0
217091.227,40.527,46.875,43.457,39.551,15.137,0
217091.231,30.273,48.340,52.734,22.949,21.973,0
217091.235,44.922,43.945,60.547,56.641,38.086,0
217091.238,38.086,35.645,42.480,44.922,58.594,0
217091.242,18.066,37.109,38.086,24.902,47.852,0
217091.246,28.809,41.016,47.852,33.691,24.902,0
217091.250,38.086,41.992,47.852,24.902,44.922,0
217091.254,40.527,46.875,47.363,22.461,43.945,0
217091.258,38.086,39.062,48.828,50.781,55.176,0
217091.262,29.297,45.410,66.406,47.852,42.969,0
217091.266,42.969,56.641,61.523,43.945,47.852,0
217091.270,58.105,54.199,42.969,62.012,69.824,0
217091.274,55.176,45.898,33.203,47.852,19.531,0
217091.277,39.062,34.180,47.852,26.855,9.766,0
217091.281,9.277,29.297,77.148,19.043,48.340,0
217091.285,18.066,26.367,79.102,25.391,56.641,0
217091.289,58.594,42.969,72.754,47.852,38.574,0
217091.293,62.012,64.941,73.730,48.828,61.035,0
217091.297,47.363,56.641,75.195,30.273,91.797,0
217091.301,12.207,40.039,62.500,15.137,86.914,0
217091.305,11.719,52.734,45.898,27.832,66.895,0
217091.309,50.293,62.012,49.805,27.344,27.344,0
217091.313,42.969,61.523,69.824,35.645,23.926,0
217091.317,54.199,63.477,83.496,52.734,33.691,0
217091.320,43.457,54.199,76.660,45.410,-8.301,0
217091.324,34.180,40.039,69.824,29.785,-9.277,0
217091.328,27.832,34.668,78.125,23.438,31.738,0
217091.332,27.832,44.922,63.965,21.484,14.648,0
217091.336,37.109,55.664,49.316,31.250,6.348,0
217091.340,38.086,56.152,55.176,29.785,20.996,0
217091.344,48.828,48.340,64.941,31.738,57.617,0
217091.348,56.641,52.246,64.453,40.527,80.078,0
217091.352,36.621,48.340,60.059,33.691,19.531,0
217091.356,26.855,29.297,70.801,27.832,-5.371,0
217091.360,35.645,31.250,81.543,40.039,59.570,0
217091.363,32.715,52.734,70.801,50.781,44.922,0
217091.367,34.668,58.105,51.758,29.785,35.156,0
217091.371,22.461,61.035,57.129,32.715,52.246,0
217091.375,28.320,63.965,60.547,38.574,37.598,0
217091.379,33.691,48.828,67.871,14.160,21.484,0
217091.383,19.043,45.898,73.730,-1.465,22.461,0
217091.387,22.461,48.828,63.965,-3.418,36.621,0
217091.391,32.715,50.781,64.941,18.555,25.879,0
217091.395,44.434,44.434,63.477,23.438,2.930,0
217091.399,47.852,32.715,70.312,26.855,-4.883,0
217091.402,57.617,40.039,65.918,41.992,17.090,0
217091.406,43.457,40.039,49.805,28.320,45.410,0
217091.410,7.812,33.203,62.500,8.789,45.898,0
217091.414,13.672,37.598,56.152,10.254,32.227,0
217091.418,34.668,46.387,44.434,3.418,66.895,0
217091.422,37.109,46.387,68.359,-3.906,78.613,0
217091.426,23.926,37.109,81.543,13.672,75.684,0
217091.430,19.531,44.922,78.613,21.973,81.055,0
217091.434,42.480,55.176,75.684,25.391,43.945,0
217091.438,38.574,60.547,80.078,39.551,13.672,0
217091.442,37.598,66.895,71.777,59.082,17.090,0
217091.445,54.199,50.781,58.594,46.387,27.832,0
217091.449,41.504,26.367,67.383,22.949,58.105,0
217091.453,33.691,38.574,54.688,4.883,59.570,0
217091.457,39.062,57.617,38.086,23.438,71.289,0
217091.461,28.320,46.875,50.293,35.645,50.781,0
217091.465,17.090,38.574,65.918,11.719,17.578,0
217091.469,33.691,62.012,73.242,21.973,-5.371,0
217091.473,53.223,81.055,84.473,42.969,-2.441,0
217091.477,30.273,59.570,83.984,32.227,28.320,0
217091.481,25.391,44.434,57.617,18.066,22.949,0
217091.485,33.691,42.480,29.297,-4.395,-3.418,0
217091.488,22.461,28.320,25.879,19.043,-16.602,0
217091.492,13.184,23.438,52.246,30.273,11.719,0
217091.496,27.832,38.574,65.430,25.391,14.160,0
217091.500,47.363,59.570,61.523,36.621,21.973,0
217091.504,47.363,73.730,61.523,39.551,47.852,0
217091.508,52.734,77.148,67.871,55.176,26.855,0
217091.512,48.828,59.570,69.336,41.992,-8.789,0
217091.516,43.457,42.480,49.316,27.344,2.441,0
217091.520,34.180,43.457,53.223,33.203,10.254,0
217091.524,14.160,33.203,53.711,11.230,20.508,0
217091.527,10.742,24.902,46.875,6.836,12.695,0
217091.531,21.484,26.367,52.246,12.695,-7.812,0
217091.535,23.926,33.691,55.664,16.602,-5.859,0
217091.539,39.551,46.387,57.617,34.668,32.715,0
217091.543,42.969,44.922,59.082,46.387,62.988,0
217091.547,33.203,47.852,61.035,47.363,41.504,0
217091.551,42.480,67.871,53.711,51.270,2.441,0
217091.555,27.832,56.641,55.176,44.434,2.441,0
217091.559,10.254,33.691,58.594,23.438,10.254,0
217091.563,23.926,36.133,50.781,21.973,2.441,0
217091.567,32.715,35.156,38.086,37.109,49.805,0
217091.570,38.086,38.574,36.621,47.363,42.480,0
217091.574,42.480,40.039,38.086,41.992,28.320,0
217091.578,47.363,39.551,51.758,28.320,37.109,0
217091.582,39.551,49.316,60.059,24.902,63.477,0
217091.586,39.062,59.570,46.387,40.527,128.418,0
217091.590,41.992,58.594,44.922,57.129,127.441,0
217091.594,45.898,48.340,48.828,54.199,72.754,0
217091.598,38.574,43.457,54.688,36.621,73.730,0
217091.602,27.832,43.945,51.270,14.648,96.191,0
217091.606,39.062,43.945,30.273,21.484,99.609,0
217091.610,50.293,51.758,41.016,45.410,67.383,0
217091.613,66.895,68.359,61.523,68.848,57.617,0
217091.617,59.082,62.500,47.852,45.898,79.590,0
217091.621,33.691,37.598,36.621,8.301,54.199,0
217091.625,29.785,35.156,35.645,9.766,31.250,0
217091.629,12.207,32.715,48.340,18.066,57.129,0
217091.633,34.180,42.969,41.016,40.039,69.336,0
217091.637,63.965,57.129,24.414,53.711,43.945,0
217091.641,57.617,47.363,40.527,36.133,38.574,0
217091.645,58.594,54.199,70.801,49.805,39.551,0
217091.649,48.828,59.082,70.801,55.664,35.645,0
217091.652,35.645,52.734,58.105,40.527,51.270,1
217091.656,40.527,48.828,53.711,40.527,27.344,0
217091.660,37.109,38.574,54.688,37.598,0.488,0
217091.664,27.832,28.809,38.574,26.855,11.719,0
217091.668,38.574,32.715,6.348,27.832,27.344,0
217091.672,42.969,36.621,23.438,40.527,27.344,0
217091.676,43.457,42.480,62.988,30.273,31.250,0
217091.680,43.945,53.223,72.266,21.484,28.320,0
217091.684,38.086,43.945,73.730,27.832,11.230,0
217091.688,49.805,53.223,73.730,42.969,10.742,0
217091.692,59.082,65.918,64.453,47.852,25.879,0
217091.695,28.320,39.551,58.594,46.875,51.270,0
217091.699,20.508,21.973,28.320,23.926,48.340,0
217091.703,49.805,31.738,4.395,22.461,17.090,0
217091.707,41.504,37.598,31.250,42.480,20.020,0
217091.711,12.695,34.180,55.176,20.508,58.105,0
217091.715,8.301,41.992,62.012,6.836,54.199,0
217091.719,38.086,54.199,63.965,37.109,32.715,0
217091.723,43.945,48.828,61.035,47.363,48.828,0
217091.727,33.203,42.969,46.875,19.043,13.184,0
217091.731,30.273,48.340,28.320,20.996,-11.719,0
217091.735,12.695,44.434,29.297,25.391,33.691,0
217091.738,21.484,37.109,44.922,22.461,33.691,0
217091.742,36.133,38.086,62.988,25.879,-0.977,0
217091.746,31.250,46.875,63.965,33.691,29.297,0
217091.750,44.922,44.922,61.035,54.688,47.852,0
217091.754,52.246,32.227,49.316,44.434,18.555,0
217091.758,41.504,35.645,20.996,32.227,30.273,0
217091.762,36.621,43.945,24.902,29.297,16.602,0
217091.766,37.109,46.875,50.293,37.598,20.996,0
217091.770,33.203,31.250,38.086,18.555,17.090,0
217091.774,36.133,41.992,62.988,27.344,-3.418,0
217091.777,41.992,63.965,83.984,61.035,17.578,0
217091.781,31.738,54.199,41.504,41.016,20.508,0
217091.785,30.273,42.480,37.109,45.410,28.809,0
217091.789,22.461,31.250,55.664,36.133,13.184,0
217091.793,25.391,25.391,44.922,19.531,27.832,0
217091.797,47.363,27.344,37.598,37.598,20.020,0
217091.801,25.879,40.527,43.457,49.316,-18.066,0
217091.805,16.113,54.199,42.480,45.410,20.020,0
217091.809,76.660,71.289,50.781,67.871,21.973,0
217091.813,64.453,67.871,61.035,60.059,-3.906,0
217091.817,37.109,40.527,53.223,23.438,-21.484,0
217091.820,33.691,26.367,49.316,13.184,-23.438,0
217091.824,20.508,23.438,40.039,28.809,-1.953,0
217091.828,22.949,34.668,33.691,41.504,-31.250,0
217091.832,37.109,52.734,48.340,39.062,-24.902,0
217091.836,41.016,53.223,57.617,38.574,-7.324,0
217091.840,50.293,50.293,25.391,39.551,0.000,0
217091.844,61.035,54.688,18.066,51.758,6.348,0
217091.848,51.270,51.270,51.270,48.828,11.719,0
217091.852,34.668,35.645,41.504,14.160,28.320,0
217091.856,18.066,25.879,36.621,11.719,9.277,0
217091.860,16.602,32.715,56.152,25.391,-8.301,0
217091.863,41.016,47.363,58.105,31.738,-35.645,0
217091.867,50.293,48.340,48.340,46.875,-14.648,0
217091.871,55.176,46.387,50.781,40.527,8.301,0
217091.875,56.641,46.387,39.062,45.410,-37.109,0
217091.879,39.062,45.410,12.695,61.035,-14.160,0
217091.883,32.227,36.621,28.320,47.852,25.879,0
217091.887,20.508,33.203,60.059,29.297,18.555,0
217091.891,35.156,52.246,73.242,28.809,-11.719,0
217091.895,55.664,44.434,60.059,33.691,-34.180,0
217091.899,22.949,21.973,33.691,21.973,-2.930,0
217091.902,3.906,22.461,26.367,1.953,-20.508,0
217091.906,27.344,35.645,34.180,6.348,-79.102,0
217091.910,38.086,35.156,47.363,31.738,-101.074,0
217091.914,45.410,37.109,52.734,29.297,-69.824,0
217091.918,42.480,43.945,64.941,28.320,-50.781,0
217091.922,37.109,41.504,51.270,30.762,-102.539,0
217091.926,55.176,58.105,37.598,41.992,-142.090,0
217091.930,44.434,68.848,64.453,44.434,-136.230,0
217091.934,10.254,46.387,58.105,3.906,-135.742,0
217091.938,6.836,29.785,43.945,-12.207,-155.762,0
217091.942,5.371,29.785,50.781,-7.812,-145.996,0
217091.945,6.348,35.156,58.594,-5.371,-156.738,0
217091.949,-4.883,33.691,51.758,-5.371,-252.441,0
217091.953,2.930,30.273,39.062,-1.465,-296.387,0
217091.957,52.246,52.734,48.340,33.203,-245.117,0
217091.961,40.527,49.805,50.293,24.414,-215.332,0
217091.965,-2.441,24.414,33.203,-8.301,-229.980,0
217091.969,-4.883,22.461,34.180,0.977,-218.750,0
217091.973,-6.836,30.762,57.617,6.348,-187.012,0
217091.977,-4.883,43.945,59.082,-6.348,-169.922,0
217091.981,18.555,52.246,44.922,11.230,-163.086,0
217091.985,23.926,42.480,38.086,31.738,-168.457,0
217091.988,5.859,30.273,36.621,16.602,-180.176,0
217091.992,8.301,37.598,40.039,-3.906,-198.242,0
217091.996,14.160,45.410,46.875,-7.812,-203.125,0
217092.000,12.207,44.434,53.711,17.578,-201.172,0
217092.004,16.113,39.551,51.758,25.391,-204.102,0
217092.008,18.555,43.457,52.734,14.648,-189.941,0
217092.012,18.555,42.480,56.152,15.137,-204.590,0
217092.016,32.715,37.598,50.781,16.602,-186.035,0
217092.020,34.668,34.180,48.828,30.762,-145.508,0
217092.024,48.340,31.250,45.410,34.668,-144.043,0
217092.027,43.945,32.227,45.410,26.367,-158.203,0
217092.031,18.555,34.668,57.129,23.926,-162.109,0
217092.035,12.207,29.785,58.594,17.090,-178.711,0
217092.039,7.812,20.508,57.129,14.648,-180.176,0
217092.043,23.438,28.809,50.293,28.809,-143.555,0
217092.047,23.438,37.598,40.527,39.062,-111.816,0
217092.051,-4.395,34.180,41.016,25.391,-100.586,0
217092.055,-14.160,22.461,38.574,12.695,-106.934,0
217092.059,-4.395,23.438,43.457,24.414,-100.586,0
217092.063,19.531,32.715,37.598,45.410,-89.355,0
217092.067,40.039,30.762,39.062,55.176,-131.836,0
217092.070,34.668,36.621,64.941,42.969,-109.863,0
217092.074,32.227,34.180,53.223,36.133,-59.570,0
217092.078,28.320,32.227,25.879,37.598,-36.621,0
217092.082,13.672,27.832,45.898,27.832,-5.859,0
217092.086,12.207,20.996,66.406,32.715,-21.973,0
217092.090,19.043,19.043,56.641,48.828,-57.617,0
217092.094,39.062,13.672,52.246,62.988,-7.812,0
217092.098,48.340,25.391,54.688,60.547,9.766,0
217092.102,40.039,35.156,43.945,48.340,-42.480,0
217092.106,34.668,41.992,33.203,52.734,-41.016,0
217092.110,19.531,33.203,41.992,36.133,-6.348,0
217092.113,16.602,18.555,67.871,33.203,23.438,0
217092.117,38.086,32.227,64.941,48.340,33.203,0
217092.121,36.133,43.945,70.312,54.688,36.621,0
217092.125,29.297,42.969,70.312,51.758,52.246,0
217092.129,32.715,36.621,37.598,37.109,30.762,0
217092.133,48.340,40.527,46.875,45.410,28.809,0
217092.137,58.594,34.668,69.336,41.992,45.410,0
217092.141,24.902,13.184,44.434,17.578,70.312,0
217092.145,16.113,17.090,23.926,24.414,77.637,0
217092.149,30.762,20.996,45.898,42.969,80.078,0
217092.152,43.945,42.480,71.777,61.035,122.070,0
217092.156,42.480,64.941,43.457,47.363,157.227,0
217092.160,15.625,33.203,30.273,7.324,127.441,0
217092.164,7.812,1.953,41.016,3.418,58.594,0
217092.168,25.391,-0.488,45.898,30.273,63.965,0
217092.172,42.480,26.367,55.664,48.828,101.074,0
217092.176,47.363,47.363,51.758,51.270,115.234,0
217092.180,50.293,58.594,49.805,55.176,125.000,0
217092.184,47.852,54.688,44.922,49.316,107.422,0
217092.188,39.062,36.621,31.250,37.598,137.207,0
217092.192,30.762,29.785,18.555,37.598,114.746,0
217092.195,27.832,33.691,40.039,54.688,94.238,0
217092.199,26.855,32.227,62.500,39.551,133.301,0
217092.203,30.273,22.949,69.336,24.902,117.188,0
217092.207,41.016,19.043,74.219,34.668,95.703,0
217092.211,46.875,20.508,60.547,28.320,125.977,0
217092.215,34.180,40.527,45.410,38.086,161.621,0
217092.219,33.203,46.875,39.551,37.598,154.785,0
217092.223,41.504,29.297,45.898,23.926,125.488,0
217092.227,27.832,33.203,44.922,34.180,127.441,0
217092.231,20.508,40.527,49.316,44.922,134.277,0
217092.235,16.113,11.230,51.270,30.273,118.164,0
217092.238,34.668,-3.418,50.781,17.578,93.262,0
217092.242,46.875,26.855,65.918,22.461,112.793,0
217092.246,50.781,36.133,73.730,36.621,140.137,0
217092.250,38.086,32.227,68.359,33.203,118.652,0
217092.254,14.648,36.133,48.828,22.949,96.191,0
217092.258,26.367,37.109,56.641,28.809,93.262,0
217092.262,41.016,33.203,59.082,15.137,96.191,0
217092.266,41.992,22.949,51.270,15.137,83.984,0
217092.270,57.129,29.297,64.453,34.668,88.379,0
217092.274,68.848,38.086,45.410,55.664,120.605,0
217092.277,54.688,30.273,31.738,51.270,103.027,0
217092.281,47.363,34.180,70.801,24.902,84.473,0
217092.285,44.922,18.555,86.914,18.066,81.543,0
217092.289,44.922,6.836,67.383,31.250,122.559,0
217092.293,49.316,27.832,58.105,45.410,125.000,0
217092.297,51.758,49.316,50.781,47.363,84.473,0
217092.301,48.340,51.758,42.480,41.992,89.844,0
217092.305,38.574,39.551,38.086,37.598,89.844,0
217092.309,20.020,22.461,43.945,27.832,71.777,0
217092.313,12.207,10.254,62.988,23.926,79.102,0
217092.317,30.762,19.531,68.848,37.598,114.258,0
217092.320,47.363,32.715,69.336,55.176,100.586,0
217092.324,49.316,44.434,60.059,53.223,77.637,0
217092.328,20.996,36.133,49.316,36.133,65.430,0
217092.332,16.602,23.926,58.105,41.504,73.730,0
217092.336,34.668,33.691,49.316,48.340,92.285,0
217092.340,15.137,31.250,23.438,31.738,84.961,0
217092.344,13.184,21.973,22.461,18.555,92.773,0
217092.348,34.180,26.367,44.922,17.578,117.188,2
217092.352,41.992,31.250,60.059,34.668,127.930,0
217092.356,26.367,16.113,43.945,41.992,104.004,0
217092.360,21.484,15.625,37.109,25.879,91.797,0
217092.363,42.480,34.180,51.270,26.367,134.277,0
217092.367,65.430,53.711,50.781,55.176,156.250,0
217092.371,65.918,62.012,41.016,56.152,151.855,0
217092.375,39.062,32.715,33.691,33.691,116.211,0
217092.379,37.598,11.230,25.879,32.227,135.254,0
217092.383,28.809,7.324,30.762,27.344,159.668,0
217092.387,21.484,3.906,42.480,21.973,118.652,0
217092.391,36.621,8.301,47.363,31.250,123.535,0
217092.395,44.922,27.832,33.691,47.363,136.230,0
217092.399,37.109,41.016,16.602,45.898,107.910,0
217092.402,25.391,31.250,33.203,18.066,80.566,0
217092.406,31.250,34.668,53.711,16.113,87.891,0
217092.410,28.320,35.645,44.922,30.273,79.102,0
217092.414,20.508,15.625,35.156,22.461,91.309,0
217092.418,4.395,8.301,42.480,13.672,87.891,0
217092.422,12.207,4.883,58.105,21.484,61.523,0
217092.426,32.227,7.324,46.387,36.621,84.961,0
217092.430,41.992,27.344,31.738,43.457,96.191,0
217092.434,53.223,50.781,39.551,56.641,60.059,0
217092.438,33.203,39.062,33.203,46.875,62.988,0
217092.442,10.254,14.648,29.785,23.926,106.445,0
217092.445,19.531,17.090,43.945,29.785,87.402,0
217092.449,26.367,19.531,42.480,23.438,87.402,0
217092.453,42.969,20.508,22.461,23.438,90.820,0
217092.457,47.852,23.926,30.762,50.293,93.262,0
217092.461,36.133,23.438,44.434,49.316,108.887,0
217092.465,33.691,27.832,42.969,27.832,88.379,0
217092.469,35.645,23.926,40.039,14.648,50.293,0
217092.473,46.387,31.738,48.828,35.645,65.430,0
217092.477,45.410,39.062,50.293,47.363,66.406,0
217092.481,34.668,24.902,30.762,40.039,57.129,0
217092.485,37.598,23.438,35.645,41.504,122.559,0
217092.488,36.133,27.832,46.875,37.598,114.258,0
217092.492,33.203,12.695,45.410,29.297,83.496,0
217092.496,36.621,1.953,39.551,28.809,125.488,0
217092.500,28.809,6.836,26.367,41.016,145.996,0
217092.504,50.293,31.738,17.090,49.805,120.605,0
217092.508,55.176,37.109,18.066,41.992,121.582,0
217092.512,33.203,12.695,39.551,30.273,120.117,0
217092.516,24.902,11.719,52.246,20.996,126.953,0
217092.520,29.297,25.391,54.688,35.156,122.559,0
217092.524,36.621,31.738,59.082,49.805,104.004,0
217092.527,38.574,28.809,50.293,50.781,118.652,0
217092.531,36.133,14.648,33.691,44.922,92.285,0
217092.535,32.227,5.859,32.227,32.715,87.891,0
217092.539,18.555,11.230,41.016,9.766,97.168,0
217092.543,11.230,20.508,44.434,4.395,106.934,0
217092.547,18.555,8.301,42.480,11.230,90.820,0
217092.551,22.949,-10.254,39.551,7.812,80.566,0
217092.555,40.039,1.465,31.738,33.691,97.656,0
217092.559,64.941,26.855,34.668,61.523,94.238,0
217092.563,62.500,24.414,36.133,50.293,126.465,0
217092.567,43.457,27.344,40.527,45.410,92.773,0
217092.570,44.922,43.457,62.012,58.594,57.129,0
217092.574,34.668,13.184,61.035,38.574,114.746,0
217092.578,9.277,-3.418,54.688,21.484,105.957,0
217092.582,10.254,15.625,45.898,27.344,76.172,0
217092.586,33.203,22.949,21.484,30.762,89.355,0
217092.590,38.086,8.789,34.180,30.273,115.723,0
217092.594,25.391,-0.488,58.594,27.344,110.352,0
217092.598,28.809,22.949,56.152,25.391,105.469,0
217092.602,29.297,28.320,51.758,10.254,131.836,0
217092.606,18.555,31.738,58.105,15.137,97.168,0
217092.610,31.250,48.828,55.664,31.738,109.863,0
217092.613,21.484,41.016,37.598,8.301,109.863,0
217092.617,-2.441,16.602,31.738,-7.324,88.379,0
217092.621,5.371,11.719,33.691,4.883,100.098,0
217092.625,0.488,28.809,35.645,-3.906,98.145,0
217092.629,-32.227,52.246,42.969,-18.066,107.422,0
217092.633,-33.691,60.547,42.480,-29.297,114.258,0
217092.637,-30.762,47.363,32.715,-59.082,84.961,0
217092.641,-49.805,60.059,33.691,-71.289,54.199,0
217092.645,-61.035,76.172,21.484,-74.219,61.523,0
217092.649,-78.613,59.082,23.926,-93.750,71.289,0
217092.652,-86.426,68.359,52.246,-96.680,55.176,0
217092.656,-92.285,81.055,43.945,-106.445,15.625,0
217092.660,-109.863,77.148,29.785,-124.023,-9.766,0
217092.664,-117.188,89.844,37.598,-123.535,38.086,0
217092.668,-126.953,94.727,21.973,-132.324,88.379,0
217092.672,-134.766,85.449,0.000,-148.926,82.520,0
217092.676,-134.277,62.500,7.812,-139.160,72.754,0
217092.680,-135.254,59.570,31.738,-126.465,49.805,0
217092.684,-131.348,77.637,41.504,-145.508,28.809,0
217092.688,-126.465,63.965,41.016,-150.391,60.547,0
217092.692,-122.559,63.965,35.645,-133.301,84.473,0
217092.695,-125.000,83.496,25.879,-126.953,91.309,0
217092.699,-108.887,66.406,22.949,-124.023,71.777,0
217092.703,-99.121,47.363,21.484,-109.375,48.828,0
217092.707,-88.867,54.199,-1.465,-97.168,79.590,0
217092.711,-68.848,66.406,10.254,-82.520,81.055,0
217092.715,-61.035,39.062,47.363,-73.242,51.758,0
217092.719,-50.781,-2.441,45.410,-60.547,47.852,0
217092.723,-41.504,33.691,44.922,-43.945,79.590,0
217092.727,-45.898,71.289,41.992,-39.551,95.703,0
217092.731,-33.203,50.781,35.156,-39.062,105.469,0
217092.735,-6.348,38.086,38.086,-19.531,109.375,0
217092.738,5.371,34.180,38.574,1.465,68.359,0
217092.742,7.812,26.855,16.113,7.812,97.168,0
217092.746,14.160,13.184,8.789,31.738,119.141,0
217092.750,42.480,13.184,34.180,48.340,60.547,0
217092.754,42.969,26.367,35.156,34.180,54.199,0
217092.758,31.738,20.508,21.484,35.645,77.148,0
217092.762,35.156,12.207,11.719,41.504,59.570,0
217092.766,32.715,6.348,25.391,40.527,50.781,0
217092.770,53.711,13.184,49.805,64.941,68.848,0
217092.774,70.801,23.438,39.062,78.125,71.289,0
217092.777,67.383,18.066,28.320,75.684,25.391,0
217092.781,60.547,-3.906,37.109,83.984,41.504,0
217092.785,75.684,-13.184,38.086,89.844,100.586,0
217092.789,93.262,-13.184,34.668,88.867,99.609,0
217092.793,90.820,-2.441,23.926,91.797,93.750,0
217092.797,95.703,5.859,24.414,110.352,92.773,0
217092.801,97.656,0.977,36.621,106.445,83.496,0
217092.805,84.961,-0.488,39.551,81.055,58.105,0
217092.809,80.566,1.953,39.551,75.684,49.805,0
217092.813,89.844,1.953,50.293,81.055,61.523,0
217092.817,89.844,0.977,41.504,83.496,80.078,0
217092.820,80.566,-2.441,26.855,87.891,101.074,0
217092.824,94.727,-12.207,34.668,98.145,73.242,0
217092.828,100.098,-20.508,37.598,96.680,68.359,0
217092.832,105.957,-7.812,48.340,102.539,99.121,0
217092.836,108.887,2.930,60.547,103.516,81.543,0
217092.840,95.703,6.836,49.805,85.449,72.754,0
217092.844,68.848,-0.488,45.898,73.730,87.402,0
217092.848,58.105,-16.602,45.410,79.102,51.270,0
217092.852,98.633,1.953,29.297,98.633,4.395,0
217092.856,111.816,7.812,32.227,111.328,-13.184,0
217092.860,81.055,-14.648,39.062,91.797,14.160,0
217092.863,73.730,-25.391,45.898,73.730,34.180,0
217092.867,80.078,-22.461,56.641,74.219,45.410,0
217092.871,66.895,-8.789,54.199,72.266,85.449,0
217092.875,62.988,-4.395,41.016,83.008,80.566,0
217092.879,67.871,-2.930,32.715,90.332,53.711,0
217092.883,67.383,-7.324,33.203,81.543,63.477,0
217092.887,67.383,-12.207,31.738,78.125,40.527,0
217092.891,80.078,10.254,48.340,86.914,2.441,0
217092.895,80.566,19.043,57.129,77.637,-13.184,0
217092.899,68.848,0.000,41.992,67.871,-22.949,0
217092.902,73.242,-4.883,34.180,81.055,0.977,0
217092.906,83.008,3.906,25.391,78.613,25.391,0
217092.910,86.914,-6.348,42.480,69.336,23.926,0
217092.914,85.449,-17.090,53.711,72.754,13.672,0
217092.918,76.172,-0.488,48.828,89.844,26.367,0
217092.922,78.613,14.648,48.340,94.727,33.691,0
217092.926,96.191,16.113,53.223,99.609,25.879,0
217092.930,87.402,2.930,43.457,92.773,31.738,0
217092.934,78.125,5.859,35.645,71.777,40.527,0
217092.938,79.102,17.578,45.410,73.242,59.082,0
217092.942,51.758,-3.418,48.340,63.477,14.160,0
217092.945,52.246,-20.020,40.039,51.270,1.465,0
217092.949,62.500,-18.066,37.598,58.594,54.199,0
217092.953,62.500,3.418,45.898,76.172,64.941,1
217092.957,73.242,31.738,54.199,88.867,54.688,0
217092.961,59.570,19.531,48.828,71.289,49.316,0
217092.965,43.457,3.418,30.273,58.594,41.992,0
217092.969,62.012,9.766,30.273,71.289,30.273,0
217092.973,68.359,14.648,38.086,66.895,15.625,0
217092.977,53.711,14.648,31.738,45.898,15.137,0
217092.981,63.477,17.578,25.879,57.617,34.180,0
217092.985,76.172,15.625,29.785,66.406,30.762,0
217092.988,66.406,11.230,51.758,58.594,-12.207,0
217092.992,67.383,8.301,63.477,61.035,26.855,0
217092.996,69.336,0.488,47.852,63.965,45.898,0
217093.000,62.012,-6.348,24.902,59.570,-8.301,0
217093.004,67.871,-2.930,12.207,64.941,-12.695,0
217093.008,72.266,0.977,27.344,67.383,15.137,0
217093.012,55.664,-1.953,42.480,49.805,51.270,0
217093.016,51.758,2.930,44.922,47.363,49.316,0
217093.020,65.430,9.766,58.594,64.941,4.395,0
217093.024,49.316,14.648,63.965,69.336,-20.996,0
217093.027,45.898,21.973,51.758,59.570,-47.363,0
217093.031,43.945,9.277,38.574,41.016,-57.129,0
217093.035,41.504,0.977,20.996,34.668,-59.082,0
217093.039,53.223,15.137,10.742,47.852,-35.156,0
217093.043,55.664,23.926,27.832,56.152,-54.688,0
217093.047,73.242,15.625,52.734,62.500,-78.613,0
217093.051,58.594,4.395,49.805,55.176,-8.301,0
217093.055,38.574,0.000,42.969,45.410,63.965,0
217093.059,40.527,12.207,50.293,43.945,50.293,0
217093.063,35.645,20.508,36.621,41.992,25.879,0
217093.067,26.855,14.160,23.438,45.898,10.742,0
217093.070,22.461,11.719,36.621,42.969,15.137,0
217093.074,47.852,8.301,54.199,56.152,20.020,0
217093.078,63.965,4.883,59.570,57.617,-15.625,0
217093.082,73.242,10.254,68.359,63.477,45.898,0
217093.086,77.148,17.578,66.406,83.008,31.250,0
217093.090,72.266,30.273,57.617,65.430,5.859,0
217093.094,62.500,35.645,34.668,56.641,38.574,0
217093.098,54.199,28.320,10.742,61.523,47.363,0
217093.102,55.664,17.090,32.715,52.246,67.871,0
217093.106,62.500,23.926,52.734,58.594,63.965,0
217093.110,72.754,30.762,55.664,73.242,64.453,0
217093.113,54.199,15.625,63.477,63.965,61.523,0
217093.117,57.617,26.855,44.922,60.547,49.805,0
217093.121,71.777,43.945,28.320,69.336,-7.812,0
217093.125,50.781,13.184,40.039,41.016,-42.480,0
217093.129,30.762,-7.324,47.852,15.625,-20.508,0
217093.133,27.832,11.230,49.805,25.879,-26.855,0
217093.137,30.762,18.066,48.828,34.668,-76.172,0
217093.141,44.922,13.184,54.199,40.527,-41.016,0
217093.145,55.664,24.414,49.805,48.340,4.883,0
217093.149,54.688,29.297,37.598,46.387,-9.277,0
217093.152,63.965,30.762,35.645,45.410,11.719,0
217093.156,50.781,25.391,28.320,53.711,14.648,0
217093.160,61.523,20.508,20.996,75.684,-4.883,0
217093.164,61.523,16.602,38.574,55.176,-30.762,0
217093.168,35.645,14.160,62.988,30.273,-22.461,0
217093.172,45.410,12.207,68.359,42.480,7.812,0
217093.176,63.965,12.695,62.500,56.152,41.504,0
217093.180,62.988,26.367,36.621,51.758,12.207,0
217093.184,52.246,29.785,27.344,42.480,-75.684,0
217093.188,54.199,26.855,54.199,57.617,-62.500,0
217093.192,69.824,26.855,58.105,79.102,-37.109,0
217093.195,65.430,20.020,49.805,73.730,-49.316,0
217093.199,31.738,7.324,43.945,53.223,-72.754,0
217093.203,12.695,9.277,46.875,39.062,-75.684,0
217093.207,15.137,12.695,39.551,25.879,-43.457,0
217093.211,29.785,21.484,37.598,35.645,-89.355,0
217093.215,43.457,21.973,37.109,35.645,-116.699,0
217093.219,39.551,10.742,31.738,23.438,-65.918,0
217093.223,43.945,18.066,45.898,33.691,-63.965,0
217093.227,39.062,20.508,45.898,31.738,-129.395,0
217093.231,40.039,29.785,33.691,31.738,-117.676,0
217093.235,50.293,36.133,31.250,41.016,-33.203,0
217093.238,41.016,12.695,33.691,33.203,-58.105,0
217093.242,49.805,20.508,46.875,36.133,-79.102,0
217093.246,42.480,28.809,48.340,40.039,-45.410,0
217093.250,40.039,16.602,45.410,41.016,-26.367,0
217093.254,47.363,11.230,58.105,42.480,-28.809,0
217093.258,43.457,5.859,47.852,31.250,-52.734,0
217093.262,45.898,6.348,31.250,33.691,-56.152,0
217093.266,39.062,21.973,43.945,42.969,-64.453,0
217093.270,51.270,41.016,51.270,48.828,-61.523,0
217093.274,62.500,45.410,36.621,56.152,-96.680,0
217093.277,56.152,27.832,22.949,50.781,-93.262,0
217093.281,26.367,15.137,32.715,26.367,-29.785,0
217093.285,14.648,19.531,48.340,14.160,-6.836,0
217093.289,32.715,19.531,40.039,19.043,-13.672,0
217093.293,33.203,10.254,34.180,22.949,-20.996,0
217093.297,41.992,8.789,43.945,30.762,5.371,0
217093.301,41.992,-0.488,40.039,32.715,10.254,0
217093.305,40.039,7.812,40.039,35.645,-13.672,0
217093.309,40.039,21.484,40.039,43.457,22.949,0
217093.313,32.227,18.555,23.926,39.062,28.809,0
217093.317,47.363,22.949,34.180,39.062,-22.461,0
217093.320,56.152,22.949,47.363,46.875,-26.367,0
217093.324,48.828,10.742,43.945,42.969,-5.371,0
217093.328,39.551,13.184,42.969,37.109,3.906,0
217093.332,39.062,19.531,35.156,39.062,-7.812,0
217093.336,51.270,13.184,33.203,43.457,0.488,0
217093.340,44.922,20.020,43.945,44.434,-9.277,0
217093.344,43.457,24.902,38.086,44.434,-21.484,0
217093.348,49.805,19.043,39.062,52.246,30.273,0
217093.352,49.805,13.184,42.969,66.895,14.648,0
217093.356,51.270,17.578,31.250,72.266,20.508,0
217093.360,46.387,28.320,27.344,48.340,55.176,0
217093.363,56.641,37.598,37.109,44.434,23.438,0
217093.367,63.477,29.297,34.668,52.734,35.645,0
217093.371,62.500,15.137,29.297,50.781,56.152,0
217093.375,62.988,19.531,35.156,63.477,30.762,0
217093.379,54.688,12.695,23.926,61.523,-26.855,0
217093.383,35.156,4.395,25.879,43.945,-32.227,0
217093.387,36.133,17.090,55.176,41.992,-30.762,0
217093.391,49.316,22.461,55.176,42.969,-10.254,0
217093.395,39.551,24.414,27.832,42.480,13.184,0
217093.399,37.109,36.133,19.043,50.293,13.184,0
217093.402,38.574,27.832,17.090,48.340,40.527,0
217093.406,45.898,25.391,20.020,48.828,30.273,0
217093.410,49.805,35.156,31.738,53.223,41.016,0
217093.414,37.598,26.855,28.809,45.410,94.727,0
217093.418,39.551,15.137,43.457,45.410,103.027,0
217093.422,41.016,4.395,59.082,45.898,131.348,0
217093.426,42.969,8.789,42.480,48.828,162.109,0
217093.430,48.828,22.949,26.855,53.223,135.254,0
217093.434,42.969,19.531,22.461,47.363,84.961,0
217093.438,50.293,19.531,29.297,60.547,120.605,0
217093.442,43.945,22.461,36.621,55.176,141.602,0
217093.445,24.902,-4.883,38.086,31.250,77.637,0
217093.449,26.367,-3.418,43.457,30.273,73.242,0
217093.453,39.551,25.879,49.316,38.086,86.426,0
217093.457,36.133,24.414,26.855,39.062,89.355,0
217093.461,36.133,21.973,12.207,50.781,99.121,0
217093.465,38.086,25.879,41.992,51.270,118.164,0
217093.469,33.203,26.367,48.828,39.062,69.336,0
217093.473,28.809,13.672,38.574,28.320,51.270,0
217093.477,22.949,0.488,34.668,26.367,129.395,0
217093.481,26.855,1.953,31.250,42.480,143.555,0
217093.485,34.180,13.184,37.109,48.340,125.488,0
217093.488,47.363,30.762,32.227,54.199,106.445,0
217093.492,49.316,32.715,31.738,47.852,104.004,0
217093.496,21.484,25.879,35.156,13.672,138.672,0
217093.500,11.230,20.508,32.715,1.953,132.324,0
217093.504,27.344,24.902,34.180,17.578,91.797,0
217093.508,31.250,5.371,20.508,26.367,87.891,0
217093.512,45.410,-3.418,6.836,38.574,94.727,0
217093.516,63.477,24.414,16.113,60.547,102.051,0
217093.520,45.898,33.203,26.367,47.363,124.512,0
217093.524,26.855,31.738,26.855,20.508,96.680,0
217093.527,21.484,19.043,39.062,20.020,66.895,0
217093.531,28.809,17.578,42.969,34.180,105.957,0
217093.535,34.180,21.484,34.668,37.598,110.352,0
217093.539,35.156,6.836,29.297,38.574,120.117,0
217093.543,38.574,5.371,26.367,45.410,113.281,2
217093.547,36.621,14.648,20.996,44.922,111.816,0
217093.551,37.109,22.949,18.066,56.152,156.250,0
217093.555,39.062,34.180,13.672,58.594,125.000,0
217093.559,31.738,30.273,17.578,33.691,89.355,0
217093.563,30.762,18.066,35.156,19.531,107.422,0
217093.567,30.273,1.465,41.016,20.996,104.492,0
217093.570,24.414,-1.465,37.109,24.414,104.980,0
217093.574,29.297,5.371,34.180,29.785,113.281,0
217093.578,26.855,8.301,31.738,35.156,102.051,0
217093.582,25.879,19.531,28.320,32.227,65.430,0
217093.586,41.504,31.738,21.484,37.598,100.586,0
217093.590,53.223,26.855,7.812,52.734,116.211,0
217093.594,57.129,9.766,8.789,65.430,89.844,0
217093.598,58.105,14.648,31.250,64.453,109.375,0
217093.602,38.574,18.555,39.551,38.086,91.309,0
217093.606,41.504,20.996,39.062,36.621,104.980,0
217093.610,49.316,27.832,40.039,46.387,145.020,0
217093.613,32.715,22.461,25.391,32.715,144.531,0
217093.617,35.156,30.762,18.555,39.062,150.879,0
217093.621,33.203,32.227,15.137,36.133,127.930,0
217093.625,35.645,12.207,30.273,37.598,120.605,0
217093.629,36.621,-1.953,36.133,42.480,113.770,0
217093.633,27.344,8.301,37.598,28.809,99.609,0
217093.637,27.832,12.207,44.434,37.109,115.723,0
217093.641,30.762,13.672,30.273,42.969,108.398,0
217093.645,39.062,21.973,24.902,35.156,112.793,0
217093.649,43.945,18.066,27.344,31.738,69.824,0
217093.652,38.086,13.184,30.762,44.922,46.387,0
217093.656,29.785,17.090,25.391,44.434,57.129,0
217093.660,28.809,22.461,16.113,32.715,56.641,0
217093.664,41.504,21.973,24.414,31.250,21.973,0
217093.668,52.246,24.902,45.898,36.621,68.359,0
217093.672,42.480,21.484,32.715,38.574,88.379,0
217093.676,41.016,11.230,13.184,39.551,55.176,0
217093.680,35.645,3.906,33.691,35.645,54.688,0
217093.684,11.719,-1.953,42.480,15.137,40.039,0
217093.688,14.160,9.766,29.785,11.230,44.434,0
217093.692,23.926,22.461,21.484,20.508,58.105,0
217093.695,31.250,18.555,32.715,28.809,51.270,0
217093.699,30.273,22.461,41.016,29.297,34.180,0
217093.703,22.949,21.484,36.133,25.879,71.777,0
217093.707,34.668,25.391,36.621,38.086,88.379,0
217093.711,34.180,25.391,31.738,43.457,88.867,0
217093.715,30.762,13.184,20.508,41.504,125.488,0
217093.719,37.598,7.324,19.043,52.246,110.352,0
217093.723,35.156,7.324,22.461,48.340,85.449,0
217093.727,21.973,-4.883,20.020,29.297,82.520,0
217093.731,31.738,5.371,23.926,29.297,83.008,0
217093.735,50.781,41.016,30.762,49.316,49.316,0
217093.738,47.852,44.434,23.926,46.387,55.664,0
217093.742,39.551,32.715,24.902,35.645,125.977,0
217093.746,32.715,17.090,35.645,30.762,138.672,0
217093.750,30.762,-3.906,38.574,28.809,121.582,0
217093.754,30.273,-11.230,31.738,38.574,105.957,0
217093.758,38.574,-8.301,31.250,45.898,83.984,0
217093.762,49.805,5.371,24.902,55.664,102.051,0
217093.766,50.781,22.949,23.926,58.594,137.207,0
217093.770,48.340,31.738,34.180,48.340,148.926,0
217093.774,45.410,40.039,45.410,48.340,121.582,0
217093.777,43.945,31.250,33.203,54.199,134.766,0
217093.781,41.992,15.137,15.137,49.805,77.148,0
217093.785,40.039,3.906,26.367,35.156,19.043,0
217093.789,26.855,-4.395,42.969,25.391,87.402,0
217093.793,24.414,11.230,38.086,23.438,67.383,0
217093.797,20.020,22.949,17.578,20.508,0.977,0
217093.801,20.020,18.555,22.461,25.391,51.270,0
217093.805,39.551,17.090,42.969,41.504,81.055,0
217093.809,35.156,16.113,29.297,41.016,43.945,0
217093.813,21.973,19.531,14.160,30.762,40.527,0
217093.817,21.484,11.719,29.785,22.949,12.207,0
217093.820,26.367,-4.883,40.039,14.648,-7.812,0
217093.824,31.250,1.465,34.668,22.949,3.418,0
217093.828,28.809,23.926,24.414,23.926,-18.066,0
217093.832,46.875,36.621,30.273,29.785,16.602,0
217093.836,43.457,24.414,39.551,33.203,43.945,0
217093.840,30.273,19.043,33.691,28.809,51.270,0
217093.844,44.922,26.855,28.320,36.133,68.848,0
217093.848,48.340,10.254,13.184,38.086,53.223,0
217093.852,50.293,14.160,18.066,48.340,9.766,0
217093.856,41.016,26.855,45.898,46.387,-2.930,0
217093.860,31.738,18.555,38.086,25.391,33.203,0
217093.863,23.926,26.367,29.297,14.648,29.785,0
217093.867,43.457,38.574,51.270,28.809,43.457,0
217093.871,70.801,32.715,45.410,54.688,69.336,0
217093.875,48.828,24.414,5.371,42.969,45.410,0
217093.879,27.832,20.996,5.859,23.926,72.754,0
217093.883,31.738,11.719,35.156,27.344,104.492,0
217093.887,27.344,10.742,45.898,19.043,76.660,0
217093.891,6.836,10.254,35.645,5.859,23.926,0
217093.895,11.719,19.043,24.414,16.602,24.902,0
217093.899,35.156,30.273,27.832,41.016,40.039,0
217093.902,44.922,19.531,33.691,50.293,-10.254,0
217093.906,43.457,14.160,33.691,46.875,17.578,0
217093.910,48.340,22.949,22.949,60.059,24.414,0
217093.914,35.156,14.648,1.953,38.574,13.184,0
217093.918,16.602,11.230,13.672,11.230,27.832,0
217093.922,26.367,26.367,44.434,26.367,-0.977,0
217093.926,27.344,26.367,54.199,32.715,12.695,0
217093.930,18.555,15.137,38.574,13.672,21.484,0
217093.934,26.855,22.461,31.738,28.320,-9.766,0
217093.938,48.340,20.020,41.016,57.129,2.441,0
217093.942,51.270,17.090,29.297,43.945,47.852,0
217093.945,34.180,29.297,11.230,25.879,55.664,0
217093.949,29.785,25.879,15.625,24.902,61.523,0
217093.953,40.039,23.438,40.039,28.809,47.852,0
217093.957,41.016,23.438,54.199,33.691,31.738,0
217093.961,40.039,25.391,41.992,39.551,6.836,0
217093.965,41.016,18.555,26.367,36.133,-34.668,0
217093.969,33.691,20.996,26.855,36.133,-13.672,0
217093.973,40.039,20.996,30.273,46.875,54.199,0
217093.977,50.781,23.926,40.039,52.246,43.457,0
217093.981,38.086,27.832,53.223,42.480,23.438,0
217093.985,35.645,24.414,45.410,32.715,24.902,0
217093.988,41.992,39.062,30.273,43.945,29.785,0
217093.992,29.785,27.832,17.578,44.922,27.832,0
217093.996,28.320,5.371,26.855,41.992,39.551,0
217094.000,37.598,17.090,42.969,46.875,60.547,0
217094.004,34.668,36.133,36.621,31.250,44.922,0
217094.008,31.250,30.273,31.738,28.320,16.602,0
217094.012,37.598,22.949,45.410,43.457,1.465,0
217094.016,42.969,15.625,41.016,47.363,25.391,0
217094.020,37.598,7.812,12.207,43.945,41.992,0
217094.024,24.414,10.742,18.066,32.227,-13.184,0
217094.027,25.879,17.090,38.086,30.273,10.742,0
217094.031,37.598,35.645,41.016,49.805,60.547,0
217094.035,29.297,34.180,42.480,34.668,29.297,0
217094.039,28.320,17.090,47.363,20.508,44.922,0
217094.043,42.969,12.695,48.828,43.945,50.781,0
217094.047,48.340,20.508,41.504,46.875,30.273,0
217094.051,36.621,13.672,20.996,29.297,49.805,0
217094.055,26.855,4.883,21.973,27.832,39.062,0
217094.059,24.902,16.602,31.250,32.227,7.324,0
217094.063,21.484,29.785,25.879,29.297,24.414,0
217094.067,31.250,35.645,35.156,32.715,8.301,0
217094.070,43.945,31.250,47.363,47.363,-1.953,0
217094.074,32.227,17.578,35.156,40.527,37.598,0
217094.078,36.621,26.367,37.598,44.434,59.570,0
217094.082,50.293,25.879,46.875,46.387,-1.953,0
217094.086,30.762,6.348,25.391,15.137,-27.832,0
217094.090,20.996,18.555,15.625,9.766,8.789,0
217094.094,35.156,29.297,34.180,25.879,20.996,0
217094.098,44.434,25.391,41.992,30.762,41.504,0
217094.102,31.738,31.250,42.969,36.621,33.203,0
217094.106,42.969,45.898,50.293,55.176,4.395,0
217094.110,42.969,28.320,39.551,43.945,-14.648,0
217094.113,26.367,0.488,25.391,20.020,-55.176,0
217094.117,20.996,2.930,30.762,21.973,-14.648,0
217094.121,27.832,20.020,26.367,39.062,31.738,0
217094.125,40.039,25.879,26.367,40.527,-0.488,0
217094.129,41.504,15.625,27.344,41.992,-50.781,0
217094.133,58.594,20.020,43.945,52.734,-44.922,0
217094.137,60.547,37.598,54.199,53.223,-7.812,0
217094.141,28.320,27.344,27.344,32.227,4.395,0
217094.145,17.090,19.531,15.625,16.602,28.809,0
217094.149,28.320,22.949,29.785,17.578,34.180,0
217094.152,27.832,12.207,32.227,28.320,4.395,0
217094.156,41.504,10.742,40.527,37.598,-22.949,0
217094.160,60.059,21.484,38.086,50.293,-8.789,0
217094.164,51.758,29.785,29.297,51.270,17.090,0
217094.168,29.785,18.066,31.250,20.020,10.742,0
217094.172,23.438,8.301,30.273,20.996,-18.066,0
217094.176,20.996,11.719,23.926,21.484,-13.672,0
217094.180,12.695,20.020,20.996,9.766,36.133,0
217094.184,23.438,22.949,33.203,23.438,20.020,0
217094.188,33.203,23.438,38.574,38.574,12.695,0
217094.192,59.082,40.527,39.551,65.918,44.922,0
217094.195,77.637,29.785,41.504,80.566,7.812,0
217094.199,54.199,7.812,23.438,52.734,-48.340,0
217094.203,19.043,4.395,19.043,20.508,-4.395,0
217094.207,6.348,11.719,34.668,12.207,55.664,1
217094.211,20.020,30.762,40.527,23.926,47.852,0
217094.215,25.879,34.668,46.387,26.855,12.695,0
217094.219,24.902,28.320,34.180,19.531,-4.395,0
217094.223,40.039,26.855,26.367,41.016,16.602,0
217094.227,53.223,27.832,31.738,56.152,38.574,0
217094.231,40.527,13.672,27.344,40.039,24.902,0
217094.235,27.344,6.836,40.527,30.273,44.434,0
217094.238,28.809,13.184,51.758,34.180,87.402,0
217094.242,33.691,12.207,36.133,41.992,32.227,0
217094.246,47.852,20.508,34.668,49.316,-42.480,0
217094.250,31.738,18.555,33.691,24.902,-29.297,0
217094.254,15.625,22.461,31.738,15.137,19.531,0
217094.258,32.227,23.438,43.945,37.109,23.926,0
217094.262,41.504,15.137,31.738,42.969,0.977,0
217094.266,61.523,35.156,16.602,65.430,-10.742,0
217094.270,60.059,40.039,33.691,69.336,-2.441,0
217094.274,19.043,0.488,43.457,22.461,11.230,0
217094.277,8.301,-6.836,36.133,8.789,7.812,0
217094.281,13.672,17.090,34.668,16.113,29.785,0
217094.285,18.066,33.203,38.086,26.855,55.176,0
217094.289,28.809,38.086,42.480,39.062,38.574,0
217094.293,28.809,28.320,22.461,39.062,23.926,0
217094.297,19.531,15.625,20.996,37.109,31.738,0
217094.301,23.438,17.578,38.574,34.180,10.742,0
217094.305,41.504,29.785,35.156,53.223,14.648,0
217094.309,35.156,17.578,41.992,43.457,-29.297,0
217094.313,20.020,-3.418,39.551,10.254,-12.207,0
217094.317,24.902,-1.465,27.832,19.531,54.688,0
217094.320,34.180,7.324,36.621,34.180,13.184,0
217094.324,37.598,15.625,40.039,40.527,13.672,0
217094.328,45.410,24.414,41.504,47.852,53.223,0
217094.332,40.527,24.902,44.434,34.668,10.742,0
217094.336,21.973,17.090,33.203,17.090,12.695,0
217094.340,33.203,28.809,22.461,29.785,14.648,0
217094.344,57.617,38.574,24.902,49.316,-17.090,0
217094.348,58.594,20.508,41.016,53.711,26.855,0
217094.352,43.457,3.418,36.133,38.574,4.883,0
217094.356,43.945,17.090,27.344,39.551,-20.020,0
217094.360,58.105,40.039,39.062,66.406,26.855,0
217094.363,47.852,32.715,16.113,62.500,23.438,0
217094.367,22.461,21.484,3.418,27.344,19.043,0
217094.371,24.902,15.625,30.762,21.484,18.066,0
217094.375,22.461,1.465,42.969,24.414,25.391,0
217094.379,10.742,11.230,37.598,23.926,38.574,0
217094.383,24.414,31.738,41.016,34.668,72.754,0
217094.387,27.344,26.367,36.133,24.902,53.711,0
217094.391,24.902,27.832,25.391,23.926,-27.832,0
217094.395,27.832,20.020,15.137,27.832,-37.598,0
217094.399,28.320,1.465,10.254,25.879,-25.391,0
217094.402,26.855,6.348,19.531,31.250,0.488,0
217094.406,37.598,28.320,19.531,46.875,8.301,0
217094.410,40.039,39.551,22.461,54.688,-4.395,0
217094.414,24.414,34.668,30.762,39.062,27.832,0
217094.418,20.020,29.297,36.621,35.156,60.059,0
217094.422,32.715,26.367,38.574,40.039,51.758,0
217094.426,29.297,22.949,35.645,27.832,26.367,0
217094.430,24.902,25.391,39.551,25.391,26.855,0
217094.434,40.527,15.137,31.738,36.621,9.277,0
217094.438,41.992,8.301,15.137,47.363,-25.391,0
217094.442,29.785,29.785,2.441,30.762,-27.832,0
217094.445,32.227,45.410,15.137,24.414,-10.742,0
217094.449,27.832,35.645,39.551,39.062,1.465,0
217094.453,34.668,24.902,41.016,48.828,-2.441,0
217094.457,30.762,24.414,29.785,41.992,-15.137,0
217094.461,11.230,6.348,28.809,22.949,-4.883,0
217094.465,14.648,-1.953,30.762,20.508,16.113,0
217094.469,21.973,12.207,21.484,28.320,-25.391,0
217094.473,42.480,12.207,18.066,42.480,-44.434,0
217094.477,53.711,18.555,9.277,51.758,0.977,0
217094.481,44.434,19.531,20.508,44.434,24.414,0
217094.485,45.898,24.414,51.270,49.805,-4.395,0
217094.488,44.922,48.340,45.898,65.430,-18.066,0
217094.492,21.484,35.156,19.531,37.598,13.184,0
217094.496,7.324,8.789,33.691,13.184,21.973,0
217094.500,9.277,1.953,31.250,8.301,-12.695,0
217094.504,23.438,2.930,13.184,20.996,0.000,0
217094.508,35.156,11.230,24.902,33.691,14.648,0
217094.512,24.414,25.879,31.250,27.344,29.297,0
217094.516,31.250,35.156,24.902,36.133,-20.508,0
217094.520,49.805,44.434,18.555,48.340,-54.199,0
217094.524,41.992,36.133,28.809,53.711,-40.039,0
217094.527,39.551,20.508,51.270,55.176,-15.625,0
217094.531,48.828,34.668,46.387,50.781,-14.648,0
217094.535,44.434,29.785,32.715,35.645,-51.270,0
217094.539,25.391,5.859,28.320,21.973,-32.227,0
217094.543,33.203,16.602,32.715,31.250,-26.367,0
217094.547,48.828,31.250,36.133,49.316,-13.184,0
217094.551,43.457,31.738,41.992,50.781,-17.090,0
217094.555,30.762,28.809,24.902,36.133,4.883,0
217094.559,32.715,40.527,32.227,34.180,-2.441,0
217094.563,41.992,52.246,56.641,39.062,-11.719,0
217094.567,22.461,28.809,32.227,20.508,21.973,0
217094.570,6.836,11.230,14.160,8.301,1.465,0
217094.574,14.648,8.789,15.137,15.137,37.598,0
217094.578,27.344,23.926,24.414,33.203,36.621,0
217094.582,41.992,40.527,34.180,49.805,34.180,0
217094.586,52.734,44.434,31.738,50.293,95.703,0
217094.590,34.180,27.832,23.926,26.367,35.156,0
217094.594,16.113,14.160,28.320,6.836,39.551,0
217094.598,23.926,21.484,33.203,22.949,75.684,0
217094.602,23.438,14.648,15.137,21.973,63.477,0
217094.606,23.438,13.672,35.645,22.461,96.191,0
217094.610,21.973,31.250,55.664,23.438,89.844,0
217094.613,4.883,35.156,44.922,5.371,96.191,0
217094.617,10.742,46.387,52.246,14.160,80.078,0
217094.621,13.184,47.363,35.645,10.742,59.082,0
217094.625,-4.883,29.297,27.344,-2.930,72.754,0
217094.629,-7.324,30.273,47.852,-0.488,76.172,0
217094.633,-13.672,39.551,36.621,-17.578,73.242,0
217094.637,-14.648,50.781,29.297,-22.461,11.230,0
217094.641,-1.465,61.035,42.969,-3.906,-7.324,0
217094.645,-33.203,51.270,40.039,-26.855,52.734,0
217094.649,-83.496,33.203,21.973,-78.613,56.152,0
217094.652,-91.309,23.926,19.531,-85.449,41.992,0
217094.656,-83.008,52.246,23.438,-81.055,36.133,0
217094.660,-83.008,81.055,28.809,-90.332,27.344,0
217094.664,-110.352,60.059,14.160,-108.887,47.363,0
217094.668,-130.859,53.711,13.184,-121.582,88.379,0
217094.672,-150.879,62.500,25.879,-144.043,107.910,0
217094.676,-181.152,48.340,23.926,-178.711,83.984,0
217094.680,-173.828,51.758,31.738,-174.805,55.176,0
217094.684,-151.367,76.660,25.391,-155.273,32.715,0
217094.688,-138.672,87.891,18.555,-140.137,27.344,0
217094.692,-141.602,74.219,26.367,-129.395,54.199,0
217094.695,-135.742,63.477,26.367,-144.531,20.508,0
217094.699,-120.117,52.734,16.113,-139.648,-31.250,0
217094.703,-112.305,42.969,21.484,-116.211,-42.480,0
217094.707,-112.793,53.223,22.949,-113.770,-35.645,0
217094.711,-112.305,64.453,21.484,-109.863,-47.852,0
217094.715,-91.797,65.918,33.203,-102.051,-83.008,0
217094.719,-85.449,51.270,30.762,-94.727,-53.223,0
217094.723,-68.359,34.668,15.137,-75.195,7.812,0
217094.727,-32.227,52.734,15.137,-42.480,-32.227,0
217094.731,-31.250,59.082,13.184,-30.273,-28.809,0
217094.735,-37.598,35.645,10.742,-16.113,47.852,0
217094.738,-8.301,27.832,16.113,-4.395,76.172,0
217094.742,15.137,24.414,31.250,8.301,82.031,0
217094.746,0.000,10.254,41.504,12.695,78.125,0
217094.750,-2.441,26.855,31.250,7.324,64.453,0
217094.754,19.531,48.340,19.531,24.902,61.523,0
217094.758,35.645,39.551,16.113,38.086,65.430,0
217094.762,44.922,20.508,0.488,41.504,48.828,0
217094.766,61.523,20.996,-0.977,62.988,35.156,0
217094.770,76.660,26.855,11.230,78.613,63.965,0
217094.774,75.684,7.812,17.090,78.613,61.523,0
217094.777,79.590,8.301,48.340,95.215,38.574,0
217094.781,74.219,19.531,52.246,83.984,62.500,0
217094.785,64.941,16.113,30.762,67.871,46.875,1
217094.789,68.848,8.789,23.438,66.406,20.020,0
217094.793,82.031,18.066,27.344,73.730,27.832,0
217094.797,101.562,16.113,26.855,90.332,31.250,0
217094.801,102.051,7.324,8.301,88.379,84.961,0
217094.805,86.426,4.883,11.230,82.520,135.254,0
217094.809,86.914,1.953,40.039,88.867,122.070,0
217094.813,99.121,2.441,56.152,101.074,124.512,0
217094.817,96.191,-7.324,40.527,97.168,83.008,0
217094.820,97.168,-1.465,24.414,90.332,91.309,0
217094.824,94.727,2.441,35.645,89.844,148.926,0
217094.828,93.262,-8.789,33.691,97.168,100.098,0
217094.832,97.168,-6.348,19.531,95.215,53.711,0
217094.836,97.656,2.930,19.531,92.285,37.109,0
217094.840,104.492,4.883,17.578,105.469,20.508,0
217094.844,117.676,14.648,26.367,118.652,9.277,0
217094.848,125.000,25.879,52.246,112.793,37.598,0
217094.852,112.305,17.090,62.012,108.398,50.293,0
217094.856,77.637,-4.883,36.133,97.656,38.086,0
217094.860,82.520,-4.395,23.438,77.148,46.875,0
217094.863,97.168,0.977,32.227,69.336,41.016,0
217094.867,103.027,-1.465,36.621,84.473,61.035,0
217094.871,116.699,16.113,48.828,106.445,24.414,0
217094.875,94.238,14.160,45.410,95.703,-33.203,0
217094.879,79.590,-1.465,18.066,81.543,-21.973,0
217094.883,102.051,11.719,24.414,101.074,8.301,0
217094.887,110.352,20.508,50.293,115.234,6.836,0
217094.891,86.426,9.277,49.316,90.332,25.879,0
217094.895,66.406,11.230,36.133,67.383,29.297,0
217094.899,73.730,11.230,23.926,71.289,-6.348,0
217094.902,79.590,6.836,17.090,80.078,-7.812,0
217094.906,69.336,11.719,24.902,68.359,-45.898,0
217094.910,68.359,10.742,33.203,68.359,-62.012,0
217094.914,81.543,12.695,37.109,82.520,8.301,0
217094.918,84.961,12.695,45.410,78.613,-3.418,0
217094.922,96.191,23.926,30.762,81.055,-64.453,0
217094.926,97.168,32.227,38.574,89.355,-51.270,0
217094.930,81.055,22.461,54.199,82.031,-13.184,0
217094.934,74.219,15.625,41.504,74.707,-14.648,0
217094.938,70.801,16.113,31.250,79.590,-17.090,0
217094.942,76.172,17.090,26.367,83.008,-3.906,0
217094.945,67.871,5.859,29.785,71.777,-38.086,0
217094.949,60.547,9.277,30.273,53.223,-24.902,0
217094.953,70.312,28.809,28.320,54.199,-52.246,0
217094.957,76.660,27.832,27.832,68.848,-56.152,0
217094.961,82.031,18.066,37.109,79.102,0.488,0
217094.965,70.801,9.766,38.086,65.430,-6.348,0
217094.969,52.246,0.000,27.344,50.293,-11.719,0
217094.973,45.898,-10.254,25.391,47.852,7.812,0
217094.977,60.059,14.160,26.855,65.918,27.832,0
217094.981,69.336,43.457,31.250,86.426,26.367,0
217094.985,46.387,24.902,31.738,60.059,-22.461,0
217094.988,42.480,14.160,37.109,50.293,-66.895,0
217094.992,55.664,25.391,35.156,66.406,-28.320,0
217094.996,50.781,21.484,28.320,66.895,25.879,0
217095.000,41.504,14.648,37.598,55.664,29.785,0
217095.004,43.457,2.930,50.781,47.852,16.602,0
217095.008,45.410,-8.301,28.320,48.340,15.625,0
217095.012,55.664,5.859,18.066,49.316,8.789,0
217095.016,58.105,23.438,24.902,48.340,24.414,0
217095.020,49.805,26.855,23.438,58.594,19.043,0
217095.024,56.641,29.297,23.438,60.059,30.762,0
217095.027,62.988,27.344,26.855,43.457,41.016,0
217095.031,60.547,23.438,42.969,47.363,48.340,0
217095.035,55.664,26.855,32.227,60.059,53.711,0
217095.039,52.246,25.391,23.926,44.922,56.152,0
217095.043,42.480,16.602,26.855,33.203,20.508,0
217095.047,36.621,9.766,27.832,39.062,-3.906,0
217095.051,42.969,9.277,27.832,36.621,3.418,0
217095.055,52.734,16.602,16.602,44.922,23.926,0
217095.059,58.594,27.344,19.531,49.805,23.438,0
217095.063,57.129,35.156,36.133,51.270,7.324,0
217095.067,46.875,17.578,43.457,41.016,13.672,0
217095.070,49.805,14.648,41.992,35.156,11.230,0
217095.074,62.500,50.293,30.273,48.828,7.812,0
217095.078,40.039,40.527,15.137,39.062,21.484,0
217095.082,18.555,8.789,27.344,22.461,14.648,0
217095.086,28.320,15.137,38.574,28.320,5.371,0
217095.090,36.133,17.090,27.344,36.621,19.043,0
217095.094,44.434,14.648,30.762,38.574,9.277,0
217095.098,53.223,29.297,38.574,49.316,9.277,0
217095.102,49.805,35.645,34.180,49.805,-5.371,0
217095.106,55.176,35.156,29.297,47.852,12.207,0
217095.110,47.852,28.809,29.297,54.688,32.227,0
217095.113,39.551,29.785,28.809,57.129,36.133,0
217095.117,28.320,24.902,20.508,39.062,19.531,0
217095.121,26.855,23.438,24.414,32.715,10.254,0
217095.125,56.152,36.621,39.062,52.246,33.203,0
217095.129,46.387,19.531,37.598,41.504,33.691,0
217095.133,28.809,2.441,21.484,26.855,48.828,0
217095.137,38.574,17.090,35.156,39.062,24.414,0
217095.141,33.691,30.762,46.387,42.480,28.809,0
217095.145,30.762,29.297,35.156,33.691,33.203,0
217095.149,46.387,39.062,29.785,40.039,10.742,0
217095.152,44.922,45.410,38.086,58.105,4.883,0
217095.156,39.551,25.391,31.738,56.152,33.203,0
217095.160,38.574,17.090,17.578,38.086,29.297,0
217095.164,41.504,33.203,30.273,41.992,40.527,0
217095.168,43.457,35.156,39.551,46.875,36.133,0
217095.172,37.109,18.066,33.203,36.133,11.230,0
217095.176,42.969,18.066,40.039,30.762,18.066,0
217095.180,43.457,31.250,42.969,34.180,20.508,0
217095.184,40.527,32.715,37.598,40.527,44.434,0
217095.188,39.062,31.738,26.855,42.480,28.320,0
217095.192,34.668,27.344,29.785,33.203,-2.441,0
217095.195,32.715,18.555,36.133,32.227,13.184,0
217095.199,29.297,14.160,26.855,35.645,32.227,0
217095.203,26.855,20.996,32.715,30.762,15.137,0
217095.207,30.273,31.738,34.668,32.227,0.488,0
217095.211,30.762,34.180,32.227,35.645,6.836,0
217095.215,43.457,40.527,38.086,37.109,22.949,0
217095.219,61.035,38.086,32.227,39.062,33.203,0
217095.223,50.781,31.250,22.949,40.039,35.156,0
217095.227,29.785,23.926,24.902,33.203,21.973,0
217095.231,21.484,12.695,31.250,28.809,-13.184,0
217095.235,32.715,29.785,35.156,43.457,-28.809,0
217095.238,38.574,28.809,36.621,36.133,-28.809,0
217095.242,22.949,13.184,41.504,21.484,0.977,0
217095.246,29.785,26.855,33.691,39.551,47.363,0
217095.250,39.551,33.691,29.785,44.434,47.363,0
217095.254,32.227,35.645,44.922,34.668,22.949,0
217095.258,45.898,33.203,41.504,47.852,36.133,0
217095.262,45.410,20.996,31.738,47.852,43.945,0
217095.266,29.785,16.602,32.715,28.809,2.441,0
217095.270,29.785,15.625,19.531,39.062,-41.504,0
217095.274,26.367,20.996,13.672,53.223,-10.254,0
217095.277,27.832,25.391,22.949,43.945,32.227,0
217095.281,32.227,35.645,28.320,38.086,1.465,0
217095.285,34.668,40.527,35.645,41.504,-1.953,0
217095.289,43.457,34.180,46.875,46.875,5.371,0
217095.293,42.969,34.668,41.992,46.875,38.574,0
217095.297,38.574,40.527,34.668,42.480,49.805,0
217095.301,26.367,36.133,37.109,34.668,3.418,0
217095.305,22.949,24.414,26.367,39.551,12.695,0
217095.309,35.156,18.066,24.902,38.574,17.578,0
217095.313,36.133,10.254,21.484,31.738,-1.953,0
217095.317,34.180,17.090,26.855,42.480,24.902,0
217095.320,44.434,33.203,46.875,46.875,44.922,0
217095.324,49.805,36.621,43.945,48.340,5.371,0
217095.328,51.270,37.598,29.297,61.035,-39.551,0
217095.332,50.293,32.715,35.645,49.805,-10.254,0
217095.336,26.367,24.414,43.945,24.414,8.301,0
217095.340,18.555,21.484,24.414,24.902,-31.250,0
217095.344,28.320,29.297,9.277,36.133,9.277,0
217095.348,29.297,32.715,20.996,37.598,34.180,0
217095.352,55.176,20.020,36.621,49.805,29.785,0
217095.356,73.242,20.508,54.688,68.359,41.016,0
217095.360,33.691,27.344,54.688,44.434,53.711,0
217095.363,8.789,29.297,43.945,19.531,39.062,0
217095.367,19.531,40.039,44.922,29.297,19.531,0
217095.371,23.438,36.133,27.344,36.133,22.461,0
217095.375,25.391,21.484,23.926,37.598,29.297,0
217095.379,24.414,19.043,35.156,30.762,72.754,0
217095.383,22.949,20.020,25.879,25.879,93.262,0
217095.387,34.180,20.508,16.113,37.598,62.988,0
217095.391,42.969,30.273,30.273,53.711,66.895,0
217095.395,35.645,30.273,37.109,46.387,70.312,0
217095.399,29.297,20.020,29.297,38.574,55.176,0
217095.402,40.039,24.902,41.504,43.945,62.012,0
217095.406,57.129,37.109,54.688,45.410,71.289,0
217095.410,45.410,29.297,28.320,37.598,98.145,0
217095.414,22.949,11.719,15.625,24.902,91.309,0
217095.418,40.039,23.926,33.691,36.133,62.012,0
217095.422,39.551,30.762,19.043,42.480,53.711,0
217095.426,35.645,28.320,16.113,45.898,108.887,0
217095.430,44.434,28.320,36.621,39.551,108.887,0
217095.434,33.691,28.320,34.180,27.344,37.598,0
217095.438,40.527,41.992,41.504,41.992,62.500,0
217095.442,51.758,42.969,47.852,49.805,29.297,0
217095.445,35.645,16.602,31.738,37.109,-37.109,0
217095.449,44.922,10.254,22.949,41.992,-13.184,0
217095.453,54.688,22.461,15.625,47.363,12.207,0
217095.457,32.715,22.949,25.879,42.969,44.434,0
217095.461,29.297,33.691,51.270,46.875,31.250,0
217095.465,38.574,37.109,46.387,47.363,1.465,0
217095.469,29.785,24.414,45.410,32.715,26.855,0
217095.473,35.156,24.902,54.688,29.297,44.922,0
217095.477,43.457,27.832,36.133,34.668,30.762,0
217095.481,21.973,15.625,12.695,25.391,18.555,0
217095.485,20.508,13.184,15.625,25.391,47.363,0
217095.488,27.832,14.648,24.902,30.762,83.496,0
217095.492,34.668,23.438,42.480,40.039,81.055,0
217095.496,58.105,42.969,52.246,57.617,83.008,1
217095.500,46.875,37.598,46.387,42.480,103.027,0
217095.504,37.109,37.598,45.410,34.180,74.219,0
217095.508,46.875,46.875,40.527,43.457,40.039,0
217095.512,29.785,35.156,23.926,22.461,46.387,0
217095.516,16.602,20.020,26.855,7.324,15.137,0
217095.520,29.297,19.043,24.902,11.230,-20.996,0
217095.524,50.781,29.785,16.113,35.156,-18.555,0
217095.527,52.246,34.180,28.809,49.805,28.809,0
217095.531,47.852,31.250,38.086,35.645,30.273,0
217095.535,57.617,30.762,39.551,38.574,8.789,0
217095.539,51.758,28.320,49.316,46.387,11.230,0
217095.543,34.180,29.297,45.898,33.203,30.762,0
217095.547,19.531,25.391,34.180,14.648,57.129,0
217095.551,20.020,27.832,29.785,13.672,75.195,0
217095.555,29.297,33.203,20.996,23.926,74.707,0
217095.559,35.156,38.086,20.508,40.527,43.457,0
217095.563,39.062,32.227,21.484,47.852,36.621,0
217095.567,36.621,21.973,15.625,36.133,20.508,0
217095.570,36.133,15.137,33.691,31.738,17.578,0
217095.574,35.156,17.578,47.852,43.945,28.320,0
217095.578,35.156,36.133,51.758,54.199,5.371,0
217095.582,39.551,33.691,53.711,52.246,-4.883,0
217095.586,30.273,24.902,30.273,44.434,30.273,0
217095.590,27.344,27.832,10.254,40.039,60.059,0
217095.594,27.344,22.461,6.348,26.367,53.223,0
217095.598,19.043,17.090,23.438,20.508,67.871,0
217095.602,26.367,23.438,41.992,36.133,55.176,0
217095.606,27.344,25.879,37.598,32.715,41.992,0
217095.610,20.508,18.066,23.926,23.438,43.457,0
217095.613,36.621,31.250,30.273,35.156,-0.488,0
217095.617,54.199,42.969,55.664,59.082,19.531,0
217095.621,42.480,22.949,50.293,52.734,87.891,0
217095.625,28.320,14.648,30.762,27.832,85.938,0
217095.629,27.832,26.367,33.691,33.691,49.805,0
217095.633,41.504,32.227,41.016,45.898,41.016,0
217095.637,57.129,31.738,34.668,52.734,14.160,0
217095.641,46.875,23.438,31.250,51.270,-29.297,0
217095.645,39.062,23.438,20.020,43.457,-2.441,0
217095.649,57.129,41.016,36.133,59.570,33.203,0
217095.652,45.410,34.180,53.223,58.105,26.855,0
217095.656,18.555,13.672,37.109,27.832,12.207,0
217095.660,11.230,13.672,31.738,7.324,-13.184,0
217095.664,18.066,11.230,32.715,14.160,-18.066,0
217095.668,23.926,18.555,29.297,27.832,4.395,0
217095.672,30.273,30.762,26.367,26.367,-21.973,0
217095.676,42.969,26.367,29.297,36.133,-8.789,0
217095.680,41.504,30.762,17.090,48.828,29.785,0
217095.684,49.316,44.922,22.461,58.105,3.418,0
217095.688,46.875,33.203,46.875,46.387,16.113,0
217095.692,29.785,5.371,50.781,24.414,0.488,0
217095.695,33.203,7.812,50.293,29.297,-12.207,0
217095.699,34.180,25.879,40.527,23.926,1.953,0
217095.703,35.156,40.039,28.809,23.926,-1.953,0
217095.707,40.527,33.203,11.719,37.109,34.180,0
217095.711,42.480,20.020,18.555,47.852,41.992,0
217095.715,45.410,28.809,26.367,48.340,1.953,0
217095.719,43.457,22.949,25.391,52.246,31.250,0
217095.723,46.387,30.273,49.316,51.758,79.102,0
217095.727,49.805,48.340,50.781,48.828,58.594,0
217095.731,39.551,36.133,39.551,55.176,41.992,0
217095.735,23.926,23.438,34.668,41.504,13.672,0
217095.738,14.160,20.508,36.133,21.484,43.945,0
217095.742,17.578,27.832,37.598,31.738,44.434,0
217095.746,23.926,34.668,20.020,31.250,16.602,0
217095.750,31.738,32.715,28.809,36.133,17.578,0
217095.754,40.527,30.273,51.270,50.293,11.719,0
217095.758,35.645,24.414,41.016,35.645,27.344,0
217095.762,14.648,15.625,25.391,20.508,-11.719,0
217095.766,15.625,21.973,23.438,23.438,-16.602,0
217095.770,34.180,23.926,34.180,29.297,-9.277,0
217095.774,41.504,23.438,39.062,40.039,-62.012,0
217095.777,41.016,31.738,21.484,46.387,-45.898,0
217095.781,40.527,39.062,25.879,44.434,5.371,0
217095.785,41.992,44.922,46.387,48.828,18.066,0
217095.789,32.227,34.668,47.852,41.016,34.668,0
217095.793,29.785,19.531,30.762,29.297,51.270,0
217095.797,30.273,18.555,22.461,29.297,44.434,0
217095.801,28.809,20.508,28.320,35.645,48.828,0
217095.805,41.992,28.809,31.738,33.691,56.152,0
217095.809,42.969,30.273,41.992,30.273,2.930,0
217095.813,38.086,20.508,47.852,41.992,3.418,0
217095.817,38.574,26.855,39.062,39.551,39.062,0
217095.820,33.691,41.504,37.109,33.203,59.082,0
217095.824,38.574,39.062,33.203,44.922,87.402,0
217095.828,37.598,37.598,28.809,39.551,72.266,0
217095.832,26.855,38.086,27.344,29.785,65.918,0
217095.836,37.598,38.574,20.996,30.273,70.801,0
217095.840,48.828,28.320,14.648,33.691,45.410,0
217095.844,41.992,18.555,16.113,41.992,32.715,0
217095.848,51.270,31.738,41.016,46.387,38.086,0
217095.852,66.895,32.227,51.758,28.809,-2.441,0
217095.856,41.992,25.879,33.203,11.719,5.371,0
217095.860,30.273,38.574,34.180,22.949,52.246,0
217095.863,33.203,50.293,46.387,31.250,36.621,0
217095.867,22.949,36.621,42.969,19.531,52.246,0
217095.871,21.973,23.438,24.414,15.137,81.543,0
217095.875,24.902,25.879,26.367,22.461,53.223,0
217095.879,33.203,17.090,44.922,28.809,14.648,0
217095.883,46.387,21.484,39.062,41.992,17.090,0
217095.887,43.457,32.227,27.832,40.039,26.367,0
217095.891,35.156,24.902,28.320,43.945,48.340,0
217095.895,31.250,29.785,35.156,48.340,38.574,0
217095.899,46.387,35.645,42.969,31.738,-13.672,0
217095.902,62.988,38.574,47.363,45.898,38.574,0
217095.906,40.527,38.086,23.438,50.293,82.520,0
217095.910,25.879,35.156,7.812,32.227,53.711,0
217095.914,34.180,33.691,38.086,31.738,72.266,0
217095.918,35.156,18.555,54.688,35.645,69.824,0
217095.922,29.785,6.836,40.039,33.691,61.523,0
217095.926,27.344,13.184,35.156,35.156,75.684,0
217095.930,48.828,20.996,40.039,47.852,52.734,0
217095.934,63.477,30.273,39.062,57.617,55.176,0
217095.938,41.992,43.457,31.738,45.898,75.195,0
217095.942,20.996,48.828,16.602,28.320,52.734,0
217095.945,30.273,40.527,20.996,36.133,17.578,0
217095.949,33.203,30.762,36.621,44.434,24.902,0
217095.953,25.879,24.414,36.133,31.250,1.465,0
217095.957,23.926,18.066,31.250,27.832,15.625,0
217095.961,27.832,17.578,29.297,33.691,77.637,0
217095.965,33.691,22.949,21.973,22.461,50.293,0
217095.969,21.484,14.160,22.461,11.230,18.555,0
217095.973,23.438,16.113,31.738,20.020,16.602,0
217095.977,32.715,42.480,28.809,35.645,31.250,0
217095.981,24.414,41.992,10.742,37.598,39.551,0
217095.985,12.207,20.996,16.602,15.137,59.082,0
217095.988,24.414,21.973,38.086,19.043,87.402,0
217095.992,45.410,29.297,39.551,47.852,94.727,0
217095.996,43.457,13.184,24.414,40.039,82.031,0
217096.000,36.133,22.949,26.855,35.156,48.340,0
217096.004,51.270,42.969,46.875,41.016,45.410,0
217096.008,52.734,34.668,45.898,38.086,64.941,0
217096.012,26.855,35.156,20.020,26.855,72.266,0
217096.016,13.184,30.762,6.836,10.254,65.430,0
217096.020,11.719,22.461,20.996,16.602,74.219,0
217096.024,21.973,29.785,43.945,24.414,66.895,0
217096.027,25.879,21.973,41.016,20.996,54.688,0
217096.031,23.926,12.207,31.250,20.508,21.484,0
217096.035,34.668,35.645,30.273,33.691,6.836,0
217096.039,43.945,50.293,31.738,49.805,41.504,0
217096.043,43.457,24.414,33.203,42.969,40.527,0
217096.047,31.250,12.695,31.738,30.273,46.387,0
217096.051,11.719,14.160,24.414,14.160,84.961,0
217096.055,5.859,18.555,32.227,10.742,76.660,0
217096.059,20.508,36.621,43.457,23.438,28.320,0
217096.063,27.832,40.527,38.086,23.438,12.207,0
217096.067,39.551,40.039,48.828,32.227,67.383,0
217096.070,48.340,36.133,54.199,51.270,79.102,0
217096.074,41.992,28.320,34.180,45.410,18.555,0
217096.078,24.414,10.254,22.461,6.348,-1.953,0
217096.082,25.391,15.137,31.738,15.625,10.742,0
217096.086,43.945,38.574,28.809,43.457,38.086,0
217096.090,23.926,31.250,15.137,15.137,55.176,0
217096.094,12.207,30.762,27.832,4.883,29.297,0
217096.098,27.832,31.738,46.387,21.973,64.453,0
217096.102,41.992,34.668,38.574,41.016,83.008,0
217096.106,43.457,41.016,25.879,41.992,35.156,0
217096.110,30.762,20.508,26.367,25.879,58.594,0
217096.113,29.297,18.555,30.273,31.738,53.711,0
217096.117,36.133,29.297,35.156,36.621,11.719,0
217096.121,41.992,27.344,27.832,31.250,16.113,0
217096.125,41.992,28.809,17.578,34.180,47.852,0
217096.129,21.484,25.879,20.508,28.320,59.570,0
217096.133,17.578,26.367,26.855,31.738,36.133,0
217096.137,29.785,34.668,35.156,37.598,19.531,0
217096.141,21.484,24.414,34.668,23.926,37.109,0
217096.145,19.531,9.766,33.691,20.508,44.922,0
217096.149,43.457,22.949,29.297,36.621,76.172,0
217096.152,42.480,20.508,15.625,33.203,75.195,0
217096.156,31.738,22.461,24.902,28.809,54.199,2
217096.160,37.598,36.621,34.668,34.180,61.523,0
217096.164,26.855,20.996,24.902,16.113,64.453,0
217096.168,20.996,23.926,21.973,22.461,94.238,0
217096.172,22.949,27.832,20.996,36.133,89.355,0
217096.176,34.668,15.137,30.273,41.016,51.758,0
217096.180,32.715,20.508,32.715,32.715,39.062,0
217096.184,25.879,32.227,28.320,20.020,39.062,0
217096.188,20.508,15.137,27.832,18.555,81.543,0
217096.192,22.949,0.488,30.762,25.391,103.516,0
217096.195,36.621,22.461,46.387,42.480,46.387,0
217096.199,34.668,36.621,50.293,38.086,34.668,0
217096.203,37.598,37.598,44.434,45.410,30.762,0
217096.207,44.434,34.668,36.621,55.664,10.254,0
217096.211,47.852,27.344,26.367,55.176,5.859,0
217096.215,61.523,39.551,23.926,72.754,-10.742,0
217096.219,48.340,39.551,27.344,54.688,11.719,0
217096.223,22.461,21.973,45.410,21.484,43.945,0
217096.227,20.508,27.344,50.293,20.508,1.465,0
217096.231,18.066,26.855,35.645,16.602,-38.574,0
217096.235,24.414,9.766,40.039,24.414,-13.672,0
217096.238,29.297,10.254,31.250,31.738,11.230,0
217096.242,22.949,25.879,19.043,23.926,-5.371,0
217096.246,26.855,32.715,23.926,24.414,37.109,0
217096.250,38.086,40.039,40.527,43.945,78.125,0
217096.254,36.133,29.297,41.016,42.480,27.344,0
217096.258,39.062,24.414,30.762,33.203,16.602,0
217096.262,41.504,32.715,31.738,43.457,52.734,0
217096.266,27.832,18.555,22.949,42.480,22.949,0
217096.270,28.809,16.113,20.508,42.969,-4.883,0
217096.274,44.434,34.180,34.668,38.574,7.324,0
217096.277,40.527,24.902,41.504,39.062,39.062,0
217096.281,31.738,12.207,36.621,38.574,52.246,0
217096.285,41.016,20.508,40.039,42.969,18.066,0
217096.289,44.922,29.785,27.832,41.992,21.973,0
217096.293,32.227,33.691,26.855,29.785,40.039,0
217096.297,26.367,22.461,34.180,20.020,29.785,0
217096.301,35.156,22.461,34.668,33.203,47.852,0
217096.305,39.062,35.156,34.668,59.082,38.574,0
217096.309,55.664,47.852,45.410,61.523,31.738,0
217096.313,48.828,34.668,45.898,40.527,25.879,0
217096.317,21.973,7.812,26.855,18.555,5.371,0
217096.320,32.227,11.719,23.438,26.855,-1.465,0
217096.324,42.969,28.809,21.484,38.574,-2.441,0
217096.328,35.156,31.738,13.184,26.367,19.043,0
217096.332,46.387,32.715,25.879,29.297,23.926,0
217096.336,51.270,28.809,46.387,43.457,59.082,0
217096.340,46.875,36.133,42.480,57.617,100.098,0
217096.344,41.504,41.016,28.320,47.852,93.750,0
217096.348,20.996,18.555,28.809,29.785,71.777,0
217096.352,21.484,13.184,33.203,32.715,50.293,0
217096.356,36.133,24.414,30.273,35.156,47.363,0
217096.360,38.574,26.367,35.645,38.086,63.477,0
217096.363,43.945,27.832,20.020,34.668,45.410,0
217096.367,47.852,35.645,18.555,46.875,37.598,0
217096.371,31.738,33.691,35.645,39.551,57.617,0
217096.375,25.391,32.227,36.133,18.066,50.781,0
217096.379,25.391,31.250,39.062,16.113,41.992,0
217096.383,24.414,27.832,33.691,18.066,92.285,0
217096.387,23.438,26.855,30.273,28.320,108.887,0
217096.391,20.020,22.949,25.391,31.250,64.453,0
217096.395,26.855,8.789,17.578,31.738,48.828,0
217096.399,31.250,5.371,18.555,32.227,66.406,0
217096.402,28.320,25.391,25.879,30.762,83.984,0
217096.406,33.691,44.434,40.039,30.762,49.805,0
217096.410,33.203,34.668,53.711,30.273,41.992,0
217096.414,25.391,14.648,46.875,28.320,72.266,0
217096.418,30.273,25.391,38.574,27.344,48.828,0
217096.422,27.832,42.480,33.203,28.809,17.578,0
217096.426,29.785,35.645,25.391,29.785,47.363,0
217096.430,33.691,21.484,27.832,32.227,94.238,0
217096.434,41.504,30.762,29.785,40.039,40.039,0
217096.438,51.758,40.527,26.855,53.223,20.020,0
217096.442,44.922,39.551,20.020,39.551,37.598,0
217096.445,35.645,40.039,40.039,20.508,35.645,0
217096.449,33.203,37.598,51.758,19.043,11.719,0
217096.453,22.949,20.020,31.250,9.277,22.949,0
217096.457,28.809,3.906,28.809,18.066,87.402,0
217096.461,33.691,4.883,28.809,31.250,84.961,0
217096.465,41.504,21.484,29.785,34.180,80.078,0
217096.469,45.898,35.645,42.969,36.133,72.266,0
217096.473,52.734,46.387,38.574,54.688,46.875,0
217096.477,48.828,40.039,32.715,56.152,39.551,0
217096.481,32.227,29.297,42.969,33.691,3.418,0
217096.485,29.785,35.156,42.480,32.715,1.953,0
217096.488,27.344,28.809,22.949,34.668,20.020,0
217096.492,33.691,15.137,20.508,29.297,14.160,0
217096.496,39.062,14.160,35.156,25.391,58.594,0
217096.500,40.039,28.809,34.180,27.832,51.270,0
217096.504,30.273,28.809,28.320,29.785,38.086,0
217096.508,42.969,42.969,37.598,41.016,69.336,0
217096.512,57.129,61.523,43.945,46.875,51.270,0
217096.516,35.156,32.227,30.273,40.039,30.762,0
217096.520,26.855,20.020,21.973,37.109,65.430,0
217096.524,25.391,15.137,23.438,23.438,70.312,0
217096.527,19.531,-2.930,21.484,16.602,27.832,0
217096.531,32.227,11.230,23.926,25.391,29.785,0
217096.535,36.133,32.227,28.809,29.297,33.203,0
217096.539,33.691,40.039,22.461,30.762,18.555,0
217096.543,44.434,49.316,38.574,35.156,-19.531,0
217096.547,50.781,40.039,49.805,31.250,-5.859,0
217096.551,41.992,18.066,35.645,29.785,56.152,0
217096.555,37.109,22.461,31.250,34.668,47.363,0
217096.559,39.062,28.320,30.762,34.668,5.859,0
217096.563,35.156,16.602,23.926,34.180,15.137,0
217096.567,38.086,18.555,32.715,38.086,63.477,0
217096.570,41.992,24.414,45.898,39.062,57.129,0
217096.574,37.598,17.578,37.109,36.621,35.645,0
217096.578,30.273,27.344,18.555,37.598,26.367,0
217096.582,39.551,45.898,20.996,44.922,48.340,0
217096.586,31.738,28.809,28.809,35.645,73.242,0
217096.590,15.137,13.672,32.715,16.113,33.691,0
217096.594,34.180,28.320,30.762,27.832,13.184,0
217096.598,49.805,39.551,28.320,42.969,-5.371,0
217096.602,37.598,22.949,30.762,40.527,-29.297,0
217096.606,28.809,17.578,44.434,42.480,-15.137,0
217096.610,26.855,19.531,41.504,29.297,13.184,0
217096.613,23.926,18.555,24.902,22.949,7.812,0
217096.617,34.668,30.762,25.879,36.133,16.113,0
217096.621,27.832,29.785,21.484,34.668,20.996,0
217096.625,27.832,30.762,26.855,32.227,-19.531,0
217096.629,36.621,37.109,24.902,31.250,-61.523,0
217096.633,43.945,34.180,28.320,31.738,-48.340,0
217096.637,49.805,28.320,44.922,40.527,-23.438,0
217096.641,37.598,30.273,42.480,34.180,-22.461,0
217096.645,34.668,38.574,45.898,32.227,-9.277,0
217096.649,37.598,30.273,35.156,19.043,-19.531,0
217096.652,37.598,27.832,30.762,15.625,-21.973,0
217096.656,40.527,22.949,37.598,37.109,-8.789,0
217096.660,41.992,21.973,25.879,34.668,-37.598,0
217096.664,33.203,31.250,16.602,22.949,28.809,0
217096.668,38.574,43.457,9.277,34.180,70.312,0
217096.672,38.574,46.387,13.672,48.340,44.434,0
217096.676,34.668,39.551,42.969,39.062,55.664,0
217096.680,43.945,37.109,53.223,43.457,72.266,0
217096.684,43.945,32.227,44.922,48.828,47.852,0
217096.688,44.434,30.273,30.762,42.480,36.621,0
217096.692,48.340,31.738,24.902,50.293,23.438,0
217096.695,42.480,19.043,34.668,39.551,-43.945,0
217096.699,31.250,11.719,46.875,33.691,-12.207,0
217096.703,27.832,20.508,42.969,35.645,43.457,0
217096.707,32.227,29.297,31.250,39.062,45.410,0
217096.711,27.832,33.691,23.926,38.086,25.391,0
217096.715,27.344,37.109,25.879,38.086,-12.207,0
217096.719,24.902,35.156,30.762,39.062,10.742,0
217096.723,21.973,37.598,27.832,42.969,54.688,0
217096.727,32.227,40.527,36.621,44.922,47.852,0
217096.731,41.992,36.133,44.434,39.551,9.766,0
217096.735,36.621,20.508,39.551,32.715,2.930,1
217096.738,29.297,14.648,30.762,20.508,-13.672,0
217096.742,33.691,18.066,26.855,32.715,10.254,0
217096.746,35.156,14.160,28.809,44.434,51.270,0
217096.750,33.203,21.484,29.297,41.992,47.363,0
217096.754,38.574,31.738,39.551,44.922,47.852,0
217096.758,32.715,35.645,41.016,37.109,49.316,0
217096.762,21.484,30.273,31.250,29.297,33.691,0
217096.766,25.879,20.020,34.180,34.180,30.273,0
217096.770,44.434,26.855,39.062,57.617,37.109,0
217096.774,42.480,33.691,29.297,53.223,26.367,0
217096.777,34.180,31.738,18.066,27.832,10.742,0
217096.781,37.109,33.203,34.668,27.832,26.855,0
217096.785,29.297,25.391,34.668,24.902,39.551,0
217096.789,23.926,17.090,17.578,29.785,48.828,0
217096.793,20.020,26.367,15.625,30.273,67.383,0
217096.797,29.297,40.039,29.297,34.180,72.754,0
217096.801,25.879,30.762,35.156,33.691,59.082,0
217096.805,22.949,19.531,41.504,22.949,45.898,0
217096.809,46.875,40.039,51.758,55.176,62.988,0
217096.813,46.387,41.016,40.039,61.035,74.707,0
217096.817,26.855,16.113,28.320,24.414,77.637,0
217096.820,29.297,10.254,27.344,20.020,50.781,0
217096.824,30.762,24.414,27.344,27.832,28.809,0
217096.828,30.273,30.273,24.414,26.367,33.203,0
217096.832,35.645,20.020,30.273,36.621,27.344,0
217096.836,42.969,26.855,30.762,45.898,49.805,0
217096.840,41.992,34.180,28.320,41.992,36.133,0
217096.844,41.016,27.344,44.434,36.621,28.809,0
217096.848,45.410,20.508,57.617,44.434,17.578,0
217096.852,39.551,23.438,46.387,49.805,-0.977,0
217096.856,27.832,32.715,16.113,38.086,-11.230,0
217096.860,26.855,32.715,16.113,37.598,16.113,0
217096.863,23.926,18.066,27.832,29.785,86.914,0
217096.867,28.320,12.207,32.715,28.320,98.145,0
217096.871,39.551,21.973,36.133,37.109,18.555,0
217096.875,35.156,19.531,37.109,30.273,-6.348,0
217096.879,37.598,11.719,38.574,39.551,46.875,0
217096.883,53.711,34.668,44.434,49.316,51.270,0
217096.887,48.340,52.734,40.039,46.387,55.176,0
217096.891,30.273,36.133,25.879,34.668,37.598,0
217096.895,27.344,24.902,35.156,22.949,15.137,0
217096.899,31.250,18.555,36.621,24.902,28.320,0
217096.902,35.156,17.578,35.156,33.691,5.859,0
217096.906,35.645,20.508,40.527,40.527,17.578,0
217096.910,36.133,19.043,34.180,36.621,50.781,0
217096.914,36.621,11.230,37.598,36.133,35.645,0
217096.918,34.668,25.391,39.551,46.387,8.301,0
217096.922,45.898,49.316,31.738,47.363,-12.207,0
217096.926,41.504,38.574,31.250,31.738,5.371,0
217096.930,23.926,22.461,29.297,18.066,36.133,0
217096.934,27.832,20.020,39.062,23.926,54.199,0
217096.938,46.387,22.949,49.316,38.574,71.289,0
217096.942,44.434,14.648,15.625,42.480,80.078,0
217096.945,46.387,21.973,0.977,48.340,53.711,0
217096.949,51.758,32.715,36.133,45.898,33.691,0
217096.953,24.414,12.207,49.316,18.066,41.992,0
217096.957,18.555,15.137,35.156,15.137,24.414,0
217096.961,41.016,41.992,30.762,40.527,20.508,0
217096.965,41.992,36.133,38.086,45.898,26.855,0
217096.969,20.020,16.113,23.438,24.902,5.859,0
217096.973,17.090,12.207,11.230,19.043,26.367,0
217096.977,27.832,22.461,26.855,29.297,46.875,0
217096.981,38.086,38.086,37.598,36.621,47.363,0
217096.985,47.852,39.062,38.086,49.805,60.547,0
217096.988,46.387,30.273,37.598,51.270,50.781,0
217096.992,49.316,30.762,28.809,54.688,34.668,0
217096.996,46.387,29.785,30.273,53.223,48.340,0
217097.000,32.715,17.578,29.785,40.527,32.715,0
217097.004,26.855,20.020,14.160,26.855,13.672,0
217097.008,23.438,23.926,16.113,24.414,50.781,0
217097.012,47.363,28.809,28.809,60.059,53.223,0
217097.016,59.082,45.898,46.387,66.406,55.176,0
217097.020,30.762,46.875,43.457,26.855,66.895,0
217097.024,16.602,25.391,23.926,5.371,12.207,0
217097.027,23.926,23.926,25.391,17.578,27.832,0
217097.031,32.227,34.180,27.344,35.156,68.359,0
217097.035,40.039,34.668,29.297,44.922,66.406,0
217097.039,41.504,29.297,41.504,41.992,46.387,0
217097.043,43.457,25.391,27.344,39.551,56.152,0
217097.047,48.828,41.504,25.391,49.316,42.480,0
217097.051,38.086,34.668,41.504,38.086,33.203,0
217097.055,26.367,20.508,41.016,29.785,63.477,0
217097.059,24.414,28.320,29.297,32.715,27.344,0
217097.063,23.926,31.250,29.297,28.320,23.438,0
217097.067,24.414,33.691,31.738,32.227,45.410,0
217097.070,31.738,35.156,26.855,28.809,5.371,0
217097.074,36.621,33.691,38.574,28.320,24.414,0
217097.078,36.133,19.531,42.480,31.250,22.461,0
217097.082,49.316,27.344,48.828,36.621,14.160,0
217097.086,49.316,31.738,46.875,40.039,65.430,0
217097.090,35.156,25.391,27.344,33.691,81.055,0
217097.094,29.297,29.785,23.438,30.273,42.480,0
217097.098,27.832,22.461,28.320,28.320,41.992,0
217097.102,25.879,18.066,20.996,40.039,77.148,0
217097.106,30.273,27.344,17.090,44.922,67.871,0
217097.110,45.898,29.297,24.902,31.738,42.480,0
217097.113,45.898,25.879,27.344,20.508,3.906,0
217097.117,38.086,24.414,34.668,25.879,0.977,0
217097.121,32.715,14.648,36.621,34.180,40.527,0
217097.125,36.133,22.461,29.785,35.156,35.645,0
217097.129,41.504,43.457,31.250,32.715,9.277,0
217097.133,26.367,37.109,27.832,20.020,19.531,0
217097.137,38.086,33.691,17.578,21.484,24.902,0
217097.141,48.828,38.086,20.508,44.922,30.273,0
217097.145,40.527,29.785,35.645,52.246,7.812,0
217097.149,45.410,32.715,36.621,42.969,14.648,0
217097.152,38.574,29.785,35.156,35.156,40.039,0
217097.156,27.344,18.066,33.203,20.508,-13.672,0
217097.160,28.320,26.855,29.785,17.090,-43.457,0
217097.164,41.992,43.457,37.109,42.480,-5.371,0
217097.168,44.434,38.086,33.203,49.805,4.883,0
217097.172,34.180,24.414,33.691,37.598,-2.441,0
217097.176,32.227,28.809,36.133,34.180,8.789,0
217097.180,25.879,28.320,17.578,27.832,28.809,0
217097.184,19.531,28.809,13.672,17.578,19.531,0
217097.188,25.391,38.086,30.273,8.301,12.207,0
217097.192,16.602,35.156,39.551,17.090,24.414,0
217097.195,12.695,21.484,39.551,28.809,33.691,0
217097.199,28.320,31.738,40.527,22.949,47.363,0
217097.203,20.996,42.480,39.062,21.484,19.531,0
217097.207,0.488,37.598,36.133,15.137,47.363,0
217097.211,-4.395,35.156,35.645,0.000,73.242,0
217097.215,-2.441,35.645,35.156,-9.277,39.062,0
217097.219,0.977,31.250,28.320,-3.906,-6.836,0
217097.223,-1.953,25.391,16.602,-1.465,-42.969,0
217097.227,-14.160,32.715,20.996,-16.113,-11.230,0
217097.231,-10.254,40.527,38.574,-14.160,23.926,0
217097.235,-12.207,47.363,44.922,-18.555,38.086,0
217097.238,-44.922,43.945,37.109,-39.062,34.180,0
217097.242,-63.965,38.086,36.133,-57.617,32.715,0
217097.246,-74.219,37.109,28.320,-77.637,13.672,0
217097.250,-80.078,34.668,14.648,-84.961,-11.230,0
217097.254,-75.195,56.152,25.391,-74.707,1.465,0
217097.258,-83.496,75.195,33.203,-70.801,29.785,0
217097.262,-97.656,64.453,15.137,-99.609,32.715,0
217097.266,-99.609,58.105,11.230,-119.141,10.254,0
217097.270,-102.539,71.289,24.902,-108.887,24.414,0
217097.274,-100.098,79.590,30.273,-106.445,15.625,0
217097.277,-88.379,85.449,38.086,-101.074,21.973,0
217097.281,-106.445,60.547,38.086,-114.746,36.621,0
217097.285,-132.324,38.086,24.414,-129.395,29.297,0
217097.289,-137.695,56.641,10.254,-125.000,30.762,0
217097.293,-136.719,68.359,3.906,-125.977,61.035,0
