Time,Timestamp,Fp1,Fp2,C3,C4,P7,P8,O1,O2,Estimulo
0.000,1595457113632.701,37912.984,10899.381,-61525.879,-18017.852,-17216.922,-27906.354,-63536.621,-24547.422,2
0.004,1595457113636.701,36064.492,10848.150,-61567.410,-18028.469,-16655.916,-27875.463,-63546.098,-24527.082,0
0.008,1595457113640.701,36564.523,10761.627,-61624.605,-18134.193,-16259.173,-27994.508,-63602.402,-24640.562,0
0.012,1595457113644.700,38557.605,10718.511,-61613.141,-18160.791,-16798.475,-28068.314,-63641.270,-24747.090,0
0.016,1595457113648.700,38921.070,10735.878,-61551.004,-18066.602,-17495.045,-27924.592,-63601.016,-24714.770,0
0.020,1595457113652.700,37934.844,10791.399,-61527.242,-17988.773,-17218.486,-27874.166,-63539.973,-24640.740,0
0.024,1595457113656.700,36052.020,10759.570,-61552.008,-17982.514,-16589.711,-27873.184,-63526.203,-24623.463,0
0.028,1595457113660.700,36503.840,10696.181,-61600.938,-18065.461,-16182.886,-27947.637,-63574.953,-24725.455,0
0.032,1595457113664.700,38532.754,10623.516,-61601.227,-18121.586,-16729.676,-27978.639,-63622.539,-24848.725,0
0.036,1595457113668.700,38927.527,10642.537,-61539.180,-18022.994,-17401.480,-27874.748,-63576.227,-24822.729,0
0.040,1595457113672.700,37934.082,10709.950,-61508.379,-17924.355,-17169.268,-27800.518,-63515.430,-24722.102,0
0.044,1595457113676.699,36015.992,10634.602,-61554.980,-17951.424,-16602.338,-27920.703,-63526.562,-24720.693,0
0.048,1595457113680.699,36475.477,10538.132,-61621.770,-18038.260,-16225.533,-27963.260,-63592.297,-24814.303,0
0.052,1595457113684.699,38560.312,10469.400,-61602.074,-18065.641,-16691.053,-27975.240,-63609.262,-24900.736,0
0.056,1595457113688.699,39010.207,10465.086,-61542.887,-17978.402,-17364.533,-27892.764,-63567.195,-24873.467,0
0.060,1595457113692.699,38006.703,10517.971,-61514.902,-17872.432,-17210.307,-27776.557,-63518.090,-24742.105,0
0.064,1595457113696.699,36052.379,10442.176,-61554.379,-17882.625,-16620.689,-27793.744,-63515.609,-24705.047,0
0.068,1595457113700.699,36436.004,10316.515,-61621.523,-17990.494,-16179.936,-27911.918,-63577.367,-24819.711,0
0.072,1595457113704.698,38566.750,10249.839,-61603.059,-17996.908,-16683.230,-27916.992,-63596.945,-24917.812,0
0.076,1595457113708.698,39091.500,10229.745,-61536.695,-17904.328,-17401.816,-27865.605,-63552.379,-24928.609,0
0.080,1595457113712.698,38046.469,10201.112,-61546.176,-17836.355,-17246.293,-27847.791,-63523.789,-24890.611,0
0.084,1595457113716.698,36073.523,10114.209,-61558.938,-17824.957,-16612.777,-27849.088,-63491.133,-24868.551,0
0.088,1595457113720.698,36441.074,9978.153,-61602.074,-17891.654,-16154.209,-27925.709,-63527.945,-24946.244,0
0.092,1595457113724.698,38577.789,9791.182,-61600.043,-17931.775,-16628.133,-27936.551,-63569.387,-25035.920,0
0.096,1595457113728.698,39116.715,9683.446,-61530.551,-17847.555,-17329.330,-27901.100,-63528.684,-25017.412,0
0.100,1595457113732.698,38089.965,9667.040,-61518.168,-17753.900,-17139.652,-27797.947,-63481.633,-24928.273,0
0.104,1595457113736.698,36057.004,9567.910,-61549.617,-17746.637,-16553.725,-27776.578,-63469.723,-24898.949,0
0.108,1595457113740.698,36346.125,9420.254,-61593.648,-17844.514,-16077.028,-27949.627,-63506.309,-24996.559,0
0.112,1595457113744.697,38528.930,9269.760,-61612.270,-17901.758,-16548.896,-27921.396,-63567.645,-25091.643,0
0.116,1595457113748.697,39159.516,9273.225,-61540.230,-17823.281,-17242.381,-27844.572,-63521.910,-25050.963,0
0.120,1595457113752.697,38113.008,9353.646,-61521.676,-17747.129,-17106.260,-27744.459,-63473.363,-24949.129,0
0.124,1595457113756.697,35995.203,9306.573,-61551.070,-17770.418,-16528.713,-27840.371,-63458.770,-24922.709,0
0.128,1595457113760.697,36294.227,9247.408,-61589.672,-17863.379,-16049.513,-27923.027,-63492.652,-24981.248,0
0.132,1595457113764.697,38499.000,9187.773,-61592.020,-17927.953,-16527.572,-27891.803,-63537.781,-25069.828,0
0.136,1595457113768.697,39152.676,9186.320,-61550.219,-17883.273,-17288.561,-27870.098,-63521.867,-25060.328,0
0.140,1595457113772.696,38082.766,9293.989,-61512.871,-17794.559,-17143.385,-27813.928,-63450.230,-24954.604,0
0.144,1595457113776.696,35944.129,9270.676,-61543.559,-17786.758,-16619.818,-27707.064,-63444.148,-24892.086,0
0.148,1595457113780.696,36177.414,9183.058,-61604.559,-17913.783,-16156.131,-27843.701,-63496.410,-25012.652,0
0.152,1595457113784.696,38424.391,9142.377,-61599.328,-17967.182,-16554.439,-27903.828,-63527.789,-25123.539,0
0.156,1595457113788.696,39149.617,9179.794,-61548.031,-17879.049,-17324.232,-27872.311,-63504.477,-25120.566,0
0.160,1595457113792.696,38086.367,9293.051,-61506.859,-17782.578,-17193.990,-27779.775,-63435.789,-25021.123,0
0.164,1595457113796.696,35911.785,9270.073,-61540.117,-17790.602,-16645.143,-27811.939,-63435.074,-24988.646,0
0.168,1595457113800.696,36134.008,9186.231,-61605.051,-17902.406,-16152.442,-27936.215,-63493.973,-25082.859,0
0.172,1595457113804.695,38502.086,9128.988,-61619.512,-17964.051,-16561.055,-27916.500,-63540.730,-25169.182,0
0.176,1595457113808.695,39283.480,9181.001,-61538.062,-17880.814,-17335.564,-27779.148,-63502.375,-25122.578,0
0.180,1595457113812.695,38146.938,9297.834,-61488.754,-17787.406,-17244.951,-27775.371,-63433.242,-25021.949,0
0.184,1595457113816.695,35917.262,9264.373,-61538.641,-17809.980,-16752.453,-27847.232,-63445.648,-25005.902,0
0.188,1595457113820.695,36104.012,9172.194,-61608.871,-17919.057,-16273.991,-27930.873,-63503.070,-25084.557,0
0.192,1595457113824.695,38459.730,9128.653,-61598.723,-17964.812,-16716.221,-27927.387,-63543.547,-25158.250,0
0.196,1595457113828.695,39287.168,9176.933,-61518.281,-17870.264,-17501.773,-27777.025,-63501.660,-25097.543,0
0.200,1595457113832.694,38156.684,9256.349,-61502.633,-17803.410,-17358.945,-27739.207,-63448.910,-24999.396,0
0.204,1595457113836.694,35873.074,9247.811,-61520.805,-17804.617,-16770.961,-27737.754,-63429.332,-24950.312,0
0.208,1595457113840.694,35985.859,9169.333,-61590.742,-17917.225,-16266.481,-27845.043,-63494.844,-25049.398,0
0.212,1595457113844.694,38347.344,9114.103,-61590.812,-17975.428,-16703.525,-27916.121,-63545.359,-25152.082,0
0.216,1595457113848.694,39231.512,9151.005,-61535.332,-17898.182,-17479.578,-27869.740,-63517.039,-25131.250,0
0.220,1595457113852.694,38111.332,9248.459,-61497.133,-17798.156,-17411.248,-27722.219,-63445.312,-25033.842,0
0.224,1595457113856.694,35795.266,9232.745,-61526.305,-17800.258,-16875.723,-27817.281,-63428.996,-25009.545,0
0.228,1595457113860.694,35883.555,9149.642,-61604.086,-17896.371,-16364.829,-27832.324,-63494.508,-25094.078,0
0.232,1595457113864.693,38253.734,9080.798,-61606.367,-17965.102,-16736.158,-27963.461,-63538.652,-25235.119,0
0.236,1595457113868.693,39138.484,9122.663,-61550.445,-17874.064,-17475.867,-27790.951,-63502.062,-25212.275,0
0.240,1595457113872.693,38007.262,9239.384,-61510.770,-17767.535,-17421.529,-27708.518,-63434.785,-25110.105,0
0.244,1595457113876.693,35730.402,9234.802,-61528.426,-17767.959,-16849.795,-27772.824,-63416.434,-25083.752,0
0.248,1595457113880.693,35821.887,9168.327,-61600.199,-17867.961,-16340.689,-27904.051,-63481.477,-25187.801,0
0.252,1595457113884.693,38203.020,9104.603,-61618.305,-17925.896,-16717.941,-27878.793,-63533.445,-25298.039,0
0.256,1595457113888.693,39121.094,9164.461,-61543.672,-17824.912,-17486.664,-27794.059,-63487.914,-25257.939,0
0.260,1595457113892.692,37991.996,9276.443,-61514.301,-17726.229,-17455.863,-27760.463,-63424.930,-25142.248,0
0.264,1595457113896.692,35753.246,9276.331,-61538.531,-17726.051,-16894.207,-27716.744,-63410.465,-25083.463,0
0.268,1595457113900.692,35812.590,9203.465,-61605.430,-17820.508,-16346.791,-27834.111,-63468.000,-25175.820,0
0.272,1595457113904.692,38211.715,9162.538,-61615.664,-17871.023,-16711.416,-27931.588,-63513.219,-25295.379,0
0.276,1595457113908.692,39128.941,9209.053,-61556.680,-17785.305,-17501.572,-27861.738,-63480.336,-25276.604,0
0.280,1595457113912.692,38032.812,9310.574,-61534.688,-17683.561,-17470.346,-27699.734,-63428.504,-25144.527,0
0.284,1595457113916.692,35788.336,9302.215,-61551.426,-17675.178,-16865.174,-27713.100,-63401.258,-25095.621,0
0.288,1595457113920.692,35837.043,9241.061,-61608.023,-17768.965,-16274.327,-27824.881,-63449.516,-25176.914,0
0.292,1595457113924.691,38271.082,9188.936,-61622.887,-17824.398,-16665.348,-27901.078,-63508.254,-25292.764,0
0.296,1595457113928.691,39213.652,9240.077,-61551.941,-17735.506,-17439.971,-27829.730,-63464.758,-25258.096,0
0.300,1595457113932.691,38051.184,9343.699,-61516.672,-17647.328,-17429.555,-27809.145,-63409.395,-25155.076,0
0.304,1595457113936.691,35783.219,9321.750,-61560.480,-17648.445,-16898.164,-27735.295,-63406.711,-25095.062,0
0.308,1595457113940.691,35778.078,9251.297,-61614.168,-17767.580,-16291.739,-27909.639,-63445.559,-25184.627,0
0.312,1595457113944.691,38212.832,9211.511,-61617.855,-17826.141,-16640.314,-27862.186,-63489.680,-25262.947,0
0.316,1595457113948.691,39153.102,9247.453,-61561.754,-17757.275,-17444.418,-27827.072,-63459.594,-25237.197,0
0.320,1595457113952.690,38005.051,9335.362,-61530.215,-17666.930,-17440.529,-27749.957,-63398.195,-25114.688,0
0.324,1595457113956.690,35744.551,9306.395,-61574.738,-17685.930,-16916.135,-27716.453,-63393.078,-25065.090,0
0.328,1595457113960.690,35750.250,9227.403,-61621.477,-17811.166,-16271.242,-27797.143,-63426.379,-25157.133,0
0.332,1595457113964.690,38184.914,9184.287,-61627.578,-17871.895,-16637.207,-27860.666,-63470.438,-25264.600,0
0.336,1595457113968.690,39126.570,9214.797,-61583.078,-17805.467,-17487.289,-27827.877,-63458.188,-25266.455,0
0.340,1595457113972.690,37991.258,9360.553,-61516.355,-17674.596,-17456.668,-27805.078,-63361.492,-25132.412,0
0.344,1595457113976.690,35748.730,9341.755,-61562.582,-17682.531,-16863.496,-27778.322,-63359.191,-25075.326,0
0.348,1595457113980.690,35697.703,9255.433,-61624.203,-17802.984,-16336.554,-27807.805,-63430.113,-25160.754,0
0.352,1595457113984.689,38121.145,9223.693,-61626.641,-17854.842,-16706.186,-27865.605,-63474.480,-25256.799,0
0.356,1595457113988.689,39079.320,9249.889,-61577.289,-17806.002,-17507.271,-27878.123,-63457.719,-25271.508,0
0.360,1595457113992.689,37988.332,9372.846,-61526.324,-17698.580,-17507.896,-27751.121,-63386.840,-25154.742,0
0.364,1595457113996.689,35770.480,9387.308,-61530.125,-17691.629,-16926.998,-27816.477,-63351.547,-25092.447,0
0.368,1595457114000.689,35701.391,9326.354,-61582.406,-17796.258,-16341.181,-27822.779,-63401.234,-25154.316,0
0.372,1595457114004.689,38106.438,9265.893,-61604.000,-17871.537,-16663.693,-27852.553,-63459.305,-25252.732,0
0.376,1595457114008.689,39052.652,9285.004,-61553.820,-17810.094,-17492.363,-27901.078,-63446.879,-25243.053,0
0.380,1595457114012.688,37973.355,9427.205,-61491.324,-17678.307,-17466.100,-27694.592,-63364.266,-25081.875,0
0.384,1595457114016.688,35776.445,9388.135,-61562.805,-17714.182,-16913.207,-27776.959,-63388.941,-25044.703,0
0.388,1595457114020.688,35696.719,9319.515,-61601.070,-17806.070,-16276.562,-27830.670,-63412.723,-25102.059,0
0.392,1595457114024.688,38125.949,9300.739,-61603.930,-17829.449,-16602.629,-27810.330,-63454.992,-25164.934,0
0.396,1595457114028.688,39072.258,9336.502,-61569.398,-17751.889,-17490.686,-27747.633,-63456.578,-25131.764,0
0.400,1595457114032.688,37936.250,9443.209,-61520.828,-17642.791,-17508.434,-27729.953,-63383.957,-25011.221,0
0.404,1595457114036.688,35746.094,9437.555,-61543.828,-17632.979,-16848.365,-27821.439,-63356.844,-24961.176,0
0.408,1595457114040.688,35632.523,9370.946,-61604.625,-17722.922,-16290.085,-27926.871,-63413.594,-25043.363,0
0.412,1595457114044.688,38049.059,9338.581,-61606.344,-17749.207,-16636.111,-27775.082,-63457.496,-25093.363,0
0.416,1595457114048.688,38980.457,9346.896,-61553.191,-17691.092,-17454.320,-27786.459,-63433.711,-25082.389,0
0.420,1595457114052.687,37849.059,9447.501,-61531.824,-17592.342,-17455.975,-27724.053,-63375.129,-24970.496,0
0.424,1595457114056.687,35737.914,9438.828,-61567.879,-17600.791,-16874.113,-27719.939,-63362.230,-24930.018,0
0.428,1595457114060.687,35625.527,9387.486,-61611.172,-17670.953,-16319.365,-27784.379,-63399.828,-24981.650,0
0.432,1595457114064.687,37993.023,9342.761,-61632.719,-17723.859,-16703.145,-27838.918,-63450.543,-25103.936,0
0.436,1595457114068.687,38902.785,9368.711,-61581.289,-17667.287,-17547.885,-27850.518,-63429.598,-25134.357,0
0.440,1595457114072.687,37792.910,9480.827,-61549.395,-17544.732,-17551.482,-27699.287,-63365.516,-25010.572,0
0.444,1595457114076.687,35711.469,9470.054,-61576.996,-17533.311,-16906.457,-27676.197,-63347.145,-24950.580,0
0.448,1595457114080.686,35581.094,9406.440,-61633.391,-17623.344,-16297.528,-27812.318,-63395.355,-25041.955,0
0.452,1595457114084.686,37969.219,9368.376,-61652.973,-17666.215,-16678.670,-27879.553,-63457.918,-25156.016,0
0.456,1595457114088.686,38917.984,9418.041,-61586.141,-17574.416,-17520.996,-27747.432,-63422.758,-25125.305,0
0.460,1595457114092.686,37803.996,9529.174,-61550.242,-17467.820,-17521.666,-27674.945,-63355.012,-24997.072,0
0.464,1595457114096.686,35762.680,9524.547,-61577.711,-17464.893,-16876.416,-27724.746,-63342.316,-24945.439,0
0.468,1595457114100.686,35655.703,9471.127,-61637.301,-17567.174,-16247.751,-27826.670,-63392.965,-25014.328,0
0.472,1595457114104.686,38042.422,9429.440,-61666.293,-17629.625,-16613.270,-27900.006,-63454.746,-25129.842,0
0.476,1595457114108.686,38940.648,9460.465,-61593.312,-17540.420,-17486.574,-27749.936,-63418.402,-25102.037,0
0.480,1595457114112.685,37828.137,9561.964,-61550.465,-17458.119,-17498.756,-27723.314,-63347.098,-25000.850,0
0.484,1595457114116.685,35853.762,9560.533,-61585.090,-17455.260,-16850.041,-27696.561,-63332.996,-24939.158,0
0.488,1595457114120.685,35726.266,9507.582,-61629.012,-17544.600,-16212.189,-27770.834,-63360.668,-25006.416,0
0.492,1595457114124.685,38096.109,9474.145,-61642.934,-17611.498,-16535.148,-27865.047,-63411.539,-25132.994,0
0.496,1595457114128.685,38972.367,9520.859,-61573.266,-17540.643,-17450.789,-27828.145,-63379.375,-25128.857,0
0.500,1595457114132.685,37825.902,9630.941,-61540.699,-17448.150,-17535.814,-27710.352,-63316.254,-25010.551,0
0.504,1595457114136.685,35862.523,9604.500,-61585.426,-17461.854,-16870.402,-27756.217,-63308.141,-24975.570,0
0.508,1595457114140.684,35721.016,9563.216,-61635.625,-17537.021,-16189.233,-27774.725,-63340.191,-25018.664,0
0.512,1595457114144.684,38053.934,9527.788,-61646.176,-17592.990,-16580.725,-27849.109,-63401.348,-25129.686,0
0.516,1595457114148.684,38932.578,9548.732,-61585.535,-17546.453,-17494.486,-27839.500,-63374.816,-25149.734,0
0.520,1595457114152.684,37816.422,9646.230,-61569.129,-17459.059,-17553.785,-27766.096,-63326.691,-25053.422,0
0.524,1595457114156.684,35853.426,9644.219,-61604.289,-17451.393,-16884.172,-27838.336,-63300.496,-25010.283,0
0.528,1595457114160.684,35676.199,9592.586,-61640.746,-17520.816,-16180.338,-27833.576,-63329.328,-25059.434,0
0.532,1595457114164.684,38025.590,9570.704,-61647.516,-17564.537,-16568.633,-27804.676,-63384.984,-25153.668,0
0.536,1595457114168.684,38963.738,9599.471,-61590.230,-17500.812,-17502.176,-27747.053,-63359.348,-25170.857,0
0.540,1595457114172.683,37832.875,9708.033,-61543.312,-17395.223,-17536.283,-27683.596,-63288.066,-25074.432,0
0.544,1595457114176.683,35892.562,9718.449,-61565.375,-17387.422,-16799.838,-27740.189,-63271.977,-25027.068,0
0.548,1595457114180.683,35681.543,9682.753,-61618.281,-17487.512,-16170.749,-27763.973,-63333.957,-25097.588,0
0.552,1595457114184.683,38030.777,9658.523,-61637.324,-17571.465,-16550.818,-27939.836,-63396.383,-25236.326,0
0.556,1595457114188.683,38980.234,9709.374,-61569.219,-17481.902,-17449.111,-27697.945,-63353.871,-25196.920,0
0.560,1595457114192.683,37845.660,9806.560,-61540.789,-17381.609,-17580.385,-27722.936,-63301.590,-25098.840,0
0.564,1595457114196.683,35912.793,9806.112,-61563.586,-17378.391,-16825.408,-27728.254,-63279.215,-25050.293,0
0.568,1595457114200.682,35686.035,9782.599,-61589.402,-17439.166,-16063.930,-27714.598,-63297.188,-25090.637,0
0.572,1595457114204.682,38025.816,9738.722,-61624.004,-17502.287,-16403.387,-27810.666,-63367.352,-25209.234,0
0.576,1595457114208.682,39007.816,9764.270,-61575.254,-17442.184,-17357.783,-27774.947,-63353.559,-25213.549,0
0.580,1595457114212.682,37888.219,9856.359,-61536.340,-17340.260,-17456.020,-27714.217,-63288.066,-25089.967,0
0.584,1595457114216.682,35919.453,9868.317,-61544.387,-17322.109,-16766.266,-27831.654,-63260.777,-25017.793,0
0.588,1595457114220.682,35641.062,9818.093,-61587.211,-17389.881,-16064.668,-27787.822,-63296.785,-25046.648,0
0.592,1595457114224.682,38017.051,9768.673,-61622.082,-17450.900,-16348.535,-27749.131,-63356.645,-25131.361,0
0.596,1595457114228.682,38999.656,9800.077,-61561.910,-17377.654,-17324.904,-27702.215,-63331.340,-25119.693,0
0.600,1595457114232.681,37891.211,9920.889,-61514.277,-17271.035,-17450.408,-27688.580,-63256.977,-24986.344,0
0.604,1595457114236.681,35928.461,9906.740,-61534.910,-17270.320,-16731.062,-27735.809,-63236.438,-24923.334,0
0.608,1595457114240.681,35580.867,9852.939,-61603.461,-17360.555,-16103.448,-27789.051,-63294.953,-24976.844,0
0.612,1595457114244.681,37956.414,9796.971,-61633.570,-17440.865,-16356.895,-27855.258,-63350.855,-25102.863,0
0.616,1595457114248.681,38980.480,9808.280,-61590.633,-17373.562,-17324.457,-27701.254,-63341.711,-25095.443,0
0.620,1595457114252.681,37892.488,9931.014,-61527.867,-17250.852,-17465.160,-27608.785,-63255.859,-24951.721,0
0.624,1595457114256.681,35927.387,9943.195,-61539.289,-17238.895,-16702.564,-27650.582,-63223.605,-24896.602,0
0.628,1595457114260.680,35566.297,9885.126,-61612.047,-17323.607,-16008.229,-27765.582,-63281.051,-24966.316,0
0.632,1595457114264.680,37937.949,9843.887,-61642.488,-17384.002,-16317.577,-27848.484,-63345.848,-25072.018,0
0.636,1595457114268.680,38966.824,9873.458,-61588.465,-17310.039,-17338.984,-27847.770,-63334.066,-25078.836,0
0.640,1595457114272.680,37906.121,9985.038,-61542.352,-17192.469,-17455.996,-27645.396,-63262.699,-24948.568,0
0.644,1595457114276.680,35984.832,9989.195,-61558.602,-17177.672,-16690.404,-27688.156,-63232.746,-24890.320,0
0.648,1595457114280.680,35617.371,9942.480,-61618.660,-17250.740,-15982.793,-27711.289,-63278.145,-24948.123,0
0.652,1595457114284.680,37989.852,9896.950,-61640.543,-17305.525,-16287.470,-27770.701,-63343.859,-25047.408,0
0.656,1595457114288.680,39034.371,9907.589,-61597.785,-17248.617,-17315.092,-27733.619,-63341.645,-25050.381,0
0.660,1595457114292.679,37953.059,10017.560,-61552.141,-17146.939,-17401.346,-27679.416,-63259.613,-24940.076,0
0.664,1595457114296.679,36028.059,10045.924,-61549.996,-17119.648,-16694.182,-27696.895,-63226.398,-24854.268,0
0.668,1595457114300.679,35637.664,9984.010,-61607.664,-17198.057,-16006.731,-27767.168,-63273.516,-24893.852,0
0.672,1595457114304.679,37992.824,9915.770,-61651.941,-17288.135,-16285.860,-27923.363,-63344.617,-25025.549,0
0.676,1595457114308.679,39041.992,9934.366,-61589.289,-17231.160,-17270.879,-27835.789,-63325.820,-25031.092,0
0.680,1595457114312.679,37989.426,10040.649,-61536.695,-17102.906,-17383.465,-27545.977,-63245.309,-24863.654,0
0.684,1595457114316.679,36082.465,10049.411,-61552.230,-17070.541,-16646.484,-27601.006,-63210.395,-24794.834,0
0.688,1595457114320.678,35603.848,9979.048,-61626.352,-17182.881,-16009.884,-27750.807,-63273.449,-24896.602,0
0.692,1595457114324.678,37964.055,9942.682,-61645.750,-17265.627,-16255.663,-27820.389,-63325.305,-25036.322,0
0.696,1595457114328.678,39023.305,9985.529,-61590.855,-17210.619,-17231.094,-27821.596,-63307.133,-25053.980,0
0.700,1595457114332.678,37901.473,10091.499,-61560.973,-17122.531,-17424.459,-27808.520,-63255.121,-24970.652,0
0.704,1595457114336.678,36013.242,10078.044,-61581.559,-17110.371,-16688.594,-27659.881,-63230.535,-24894.725,0
0.708,1595457114340.678,35558.184,9998.963,-61638.176,-17197.699,-15946.852,-27769.852,-63264.711,-24971.055,0
0.712,1595457114344.678,37919.891,9948.448,-61667.477,-17253.869,-16216.324,-27776.959,-63336.078,-25077.561,0
0.716,1595457114348.678,38991.656,9981.976,-61605.383,-17194.012,-17211.514,-27766.252,-63320.723,-25092.559,0
0.720,1595457114352.677,37933.590,10075.540,-61547.090,-17096.691,-17350.764,-27739.855,-63243.992,-24999.732,0
0.724,1595457114356.677,36050.547,10083.318,-61581.312,-17078.834,-16677.887,-27702.639,-63235.406,-24925.346,0
0.728,1595457114360.677,35558.113,10028.021,-61623.465,-17162.787,-16000.786,-27843.812,-63272.512,-24997.096,0
0.732,1595457114364.677,37914.145,9987.385,-61646.062,-17236.592,-16220.370,-27925.396,-63333.418,-25118.084,0
0.736,1595457114368.677,39009.805,9977.908,-61609.004,-17178.566,-17218.107,-27770.320,-63341.379,-25123.182,0
0.740,1595457114372.677,37922.348,10086.112,-61558.109,-17078.967,-17422.111,-27736.703,-63272.711,-25030.041,0
0.744,1595457114376.677,36038.344,10098.831,-61568.594,-17082.387,-16691.500,-27815.762,-63235.719,-24987.752,0
0.748,1595457114380.677,35516.875,10049.701,-61638.441,-17166.854,-15954.339,-27818.443,-63283.867,-25040.904,0
0.752,1595457114384.677,37881.133,10030.211,-61655.832,-17212.943,-16222.359,-27763.793,-63341.219,-25124.992,0
0.756,1595457114388.676,38975.676,10046.572,-61583.414,-17166.385,-17198.348,-27855.637,-63307.762,-25165.158,0
0.760,1595457114392.676,37921.590,10160.834,-61527.488,-17058.672,-17341.713,-27715.000,-63232.012,-25056.797,0
0.764,1595457114396.676,36036.152,10159.337,-61579.656,-17062.248,-16687.857,-27666.451,-63230.199,-24995.418,0
0.768,1595457114400.676,35474.766,10099.144,-61634.328,-17155.521,-15970.455,-27744.527,-63266.945,-25061.289,0
0.772,1595457114404.676,37825.812,10068.656,-61653.148,-17227.965,-16230.384,-27840.326,-63328.637,-25175.305,0
0.776,1595457114408.676,38931.773,10073.931,-61621.855,-17189.385,-17285.051,-27855.928,-63330.672,-25204.721,0
0.780,1595457114412.676,37878.875,10197.715,-61554.824,-17063.791,-17496.945,-27725.707,-63247.836,-25068.955,0
0.784,1595457114416.675,36008.121,10222.056,-61563.742,-17054.693,-16768.748,-27746.650,-63212.453,-24996.938,0
0.788,1595457114420.675,35423.332,10149.882,-61639.359,-17171.705,-16013.482,-27787.754,-63260.328,-25077.807,0
0.792,1595457114424.675,37781.039,10110.297,-61671.566,-17247.857,-16245.649,-27829.217,-63334.047,-25204.184,0
0.796,1595457114428.675,38929.496,10132.023,-61624.605,-17196.246,-17252.775,-27768.912,-63326.895,-25219.875,0
0.800,1595457114432.675,37862.133,10234.551,-61583.727,-17102.324,-17473.990,-27689.363,-63257.023,-25130.467,0
0.804,1595457114436.675,35987.871,10249.974,-61606.480,-17096.805,-16736.561,-27691.307,-63231.293,-25078.008,0
0.808,1595457114440.675,35375.680,10205.806,-61659.387,-17180.176,-15972.311,-27815.783,-63272.891,-25146.963,0
0.812,1595457114444.675,37757.750,10164.299,-61684.664,-17248.326,-16135.635,-27804.898,-63337.957,-25261.047,0
0.816,1595457114448.674,38946.730,10190.741,-61625.188,-17185.160,-17102.348,-27735.295,-63314.465,-25275.553,0
0.820,1595457114452.674,37914.680,10299.482,-61576.887,-17089.293,-17327.898,-27756.842,-63244.234,-25176.467,0
0.824,1595457114456.674,36056.672,10297.359,-61612.938,-17099.576,-16667.092,-27889.119,-63239.320,-25138.582,0
0.828,1595457114460.674,35420.316,10252.320,-61645.438,-17149.062,-15891.934,-27751.812,-63258.473,-25142.471,0
0.832,1595457114464.674,37787.543,10222.101,-61667.902,-17210.977,-16059.594,-27782.568,-63318.176,-25238.092,0
0.836,1595457114468.674,39010.340,10229.566,-61621.855,-17178.611,-17074.787,-27780.893,-63319.203,-25279.822,0
0.840,1595457114472.674,37968.641,10323.443,-61560.523,-17059.900,-17346.898,-27703.242,-63247.164,-25164.576,0
0.844,1595457114476.673,36097.059,10327.824,-61594.344,-17058.404,-16663.939,-27776.467,-63225.930,-25098.303,0
0.848,1595457114480.673,35410.660,10286.116,-61646.242,-17148.035,-15940.481,-27927.252,-63265.066,-25162.520,0
0.852,1595457114484.673,37784.797,10238.462,-61675.680,-17221.125,-16098.754,-27836.885,-63329.711,-25253.223,0
0.856,1595457114488.673,39026.836,10261.954,-61601.184,-17161.580,-17041.416,-27914.355,-63283.711,-25262.432,0
0.860,1595457114492.673,38032.008,10366.225,-61560.680,-17050.916,-17314.332,-27672.979,-63225.125,-25118.309,0
0.864,1595457114496.673,36191.406,10372.908,-61595.883,-17056.191,-16675.406,-27647.990,-63210.531,-25048.771,0
0.868,1595457114500.673,35443.383,10329.031,-61653.305,-17139.139,-15912.273,-27733.932,-63238.961,-25100.404,0
0.872,1595457114504.673,37763.293,10276.684,-61673.488,-17236.346,-16083.019,-27883.756,-63301.680,-25239.633,0
0.876,1595457114508.672,39017.738,10291.548,-61636.609,-17197.365,-17094.814,-27925.330,-63302.887,-25281.164,0
0.880,1595457114512.672,37995.016,10404.871,-61569.754,-17079.324,-17371.262,-27804.117,-63219.672,-25151.971,0
0.884,1595457114516.672,36162.125,10410.749,-61593.270,-17049.463,-16656.697,-27574.631,-63194.215,-25036.658,0
0.888,1595457114520.672,35375.836,10363.096,-61658.203,-17147.207,-15910.307,-27794.371,-63240.258,-25118.957,0
0.892,1595457114524.672,37705.582,10325.790,-61686.812,-17246.023,-16068.848,-27962.389,-63311.066,-25269.316,0
0.896,1595457114528.672,39015.328,10339.269,-61627.625,-17165.848,-17085.449,-27790.080,-63303.805,-25257.828,0
0.900,1595457114532.672,38046.781,10457.777,-61545.504,-17039.113,-17344.104,-27601.744,-63214.555,-25113.145,0
0.904,1595457114536.671,36204.082,10466.003,-61561.621,-17054.135,-16589.240,-27675.885,-63186.234,-25063.189,0
0.908,1595457114540.671,35383.660,10408.715,-61619.758,-17135.316,-15866.988,-27804.072,-63232.637,-25122.422,0
0.912,1595457114544.671,37723.887,10362.917,-61654.961,-17222.086,-16016.388,-27912.119,-63308.879,-25246.541,0
0.916,1595457114548.671,39092.930,10375.300,-61607.688,-17173.582,-17035.582,-27797.188,-63311.047,-25250.430,0
0.920,1595457114552.671,38109.680,10468.842,-61555.762,-17095.262,-17308.498,-27760.643,-63246.137,-25158.363,0
0.924,1595457114556.671,36258.664,10520.697,-61575.926,-17071.367,-16606.920,-27774.008,-63213.367,-25068.955,0
0.928,1595457114560.671,35395.035,10470.138,-61619.020,-17119.156,-15835.651,-27668.777,-63228.164,-25047.387,0
0.932,1595457114564.671,37719.262,10424.562,-61645.035,-17188.334,-15959.994,-27754.965,-63289.992,-25139.834,0
0.936,1595457114568.670,39079.879,10410.615,-61621.367,-17171.146,-16959.676,-27793.275,-63305.168,-25177.115,0
0.940,1595457114572.670,38122.867,10526.196,-61549.168,-17054.291,-17264.107,-27663.680,-63223.090,-25034.289,0
0.944,1595457114576.670,36257.969,10564.529,-61552.297,-17020.518,-16576.389,-27659.121,-63178.590,-24928.117,0
0.948,1595457114580.670,35315.664,10510.460,-61608.223,-17095.686,-15816.317,-27748.305,-63206.059,-24966.070,0
0.952,1595457114584.670,37606.383,10472.082,-61650.156,-17188.223,-15964.442,-27908.566,-63287.309,-25100.941,0
0.956,1595457114588.670,39034.480,10476.866,-61600.223,-17157.266,-16945.996,-27863.281,-63279.887,-25133.686,0
0.960,1595457114592.670,38124.898,10589.161,-61535.715,-17024.475,-17203.131,-27602.369,-63186.258,-24982.768,0
0.964,1595457114596.669,36261.078,10619.850,-61567.699,-17015.980,-16562.709,-27641.730,-63164.887,-24920.160,0
0.968,1595457114600.669,35263.766,10564.261,-61602.055,-17097.855,-15839.765,-27753.244,-63188.668,-24975.078,0
0.972,1595457114604.669,37558.328,10513.053,-61660.391,-17191.463,-16016.991,-27821.773,-63284.961,-25105.166,0
0.976,1595457114608.669,39044.047,10514.126,-61608.668,-17149.801,-16969.354,-27695.486,-63272.062,-25119.426,0
0.980,1595457114612.669,38148.637,10618.419,-61553.016,-17029.078,-17214.799,-27643.988,-63192.582,-25017.859,0
0.984,1595457114616.669,36265.012,10662.273,-61579.859,-17009.721,-16574.600,-27674.945,-63166.004,-24951.609,0
0.988,1595457114620.669,35200.957,10611.714,-61638.844,-17093.316,-15858.249,-27795.176,-63201.523,-25006.729,0
0.992,1595457114624.669,37499.520,10579.125,-61662.785,-17170.520,-15938.313,-27875.508,-63262.320,-25126.869,0
0.996,1595457114628.668,39046.527,10590.569,-61607.598,-17124.117,-16903.686,-27765.225,-63266.723,-25142.807,0
1.000,1595457114632.668,38183.664,10686.682,-61562.379,-17011.086,-17263.391,-27635.650,-63206.262,-25027.471,0
1.004,1595457114636.668,36299.969,10704.361,-61599.148,-17005.162,-16625.584,-27674.811,-63184.648,-24970.094,0
1.008,1595457114640.668,35214.391,10659.726,-61645.348,-17072.352,-15875.795,-27744.438,-63210.418,-25015.289,0
1.012,1595457114644.668,37522.656,10649.443,-61645.395,-17142.736,-15915.917,-27830.246,-63256.820,-25123.047,0
1.016,1595457114648.668,39091.613,10628.992,-61633.523,-17128.855,-16886.139,-27796.605,-63281.387,-25175.217,0
1.020,1595457114652.668,38252.953,10742.203,-61558.578,-17002.926,-17251.076,-27663.412,-63200.090,-25048.213,0
1.024,1595457114656.667,36395.008,10786.482,-61582.785,-16979.859,-16600.908,-27719.537,-63169.648,-24968.775,0
1.028,1595457114660.667,35238.441,10725.976,-61647.785,-17090.814,-15936.011,-28007.205,-63227.629,-25070.186,0
1.032,1595457114664.667,37531.641,10682.256,-61681.336,-17166.363,-15992.293,-27830.961,-63287.621,-25151.926,0
1.036,1595457114668.667,39135.445,10697.388,-61619.086,-17105.387,-16902.635,-27731.295,-63260.375,-25150.248,0
1.040,1595457114672.667,38299.758,10796.809,-61557.328,-16996.176,-17192.291,-27595.529,-63174.879,-25040.078,0
1.044,1595457114676.667,36414.770,10826.380,-61582.184,-16979.770,-16585.775,-27682.590,-63151.855,-24972.598,0
1.048,1595457114680.667,35242.844,10792.964,-61623.152,-17055.117,-15860.977,-27750.203,-63171.973,-25003.197,0
1.052,1595457114684.667,37500.059,10754.966,-61663.566,-17152.840,-15946.539,-27821.975,-63241.020,-25119.135,0
1.056,1595457114688.667,39076.973,10763.058,-61624.094,-17126.600,-16910.436,-27889.119,-63241.375,-25176.580,0
1.060,1595457114692.667,38261.871,10880.449,-61567.609,-17006.234,-17308.184,-27673.604,-63172.352,-25051.119,0
1.064,1595457114696.666,36404.598,10925.062,-61573.531,-16968.348,-16669.998,-27647.654,-63131.516,-24967.076,0
1.068,1595457114700.666,35172.949,10868.781,-61636.410,-17065.512,-15986.057,-27784.760,-63182.367,-25032.545,0
1.072,1595457114704.666,37452.961,10827.944,-61668.996,-17161.580,-15973.025,-27859.504,-63246.492,-25158.766,0
1.076,1595457114708.666,39068.590,10835.455,-61618.930,-17129.549,-16918.393,-27816.723,-63251.859,-25180.424,0
1.080,1595457114712.666,38266.430,10971.107,-61535.781,-16987.281,-17303.938,-27653.600,-63168.328,-25030.377,0
1.084,1595457114716.666,36430.793,10988.676,-61575.613,-17004.268,-16681.285,-27739.900,-63164.418,-24979.795,0
1.088,1595457114720.666,35227.266,10926.784,-61626.598,-17081.873,-15968.712,-27772.689,-63212.297,-25005.857,0
1.092,1595457114724.665,37488.723,10863.596,-61658.156,-17175.861,-15912.676,-27825.373,-63266.590,-25116.744,0
1.096,1595457114728.665,39101.918,10890.686,-61594.344,-17134.287,-16823.621,-27813.459,-63252.773,-25147.008,0
1.100,1595457114732.665,38290.371,10982.484,-61539.848,-17037.281,-17248.059,-27772.623,-63195.422,-25038.758,0
1.104,1595457114736.665,36478.695,10993.594,-61570.469,-17005.766,-16635.465,-27658.383,-63174.746,-24938.242,0
1.108,1595457114740.665,35248.453,10944.464,-61606.859,-17067.725,-15841.575,-27698.393,-63183.148,-24951.811,0
1.112,1595457114744.665,37478.621,10902.041,-61653.172,-17158.785,-15835.428,-27815.561,-63250.762,-25078.076,0
1.116,1595457114748.665,39083.074,10902.510,-61626.172,-17136.947,-16838.262,-27723.828,-63268.422,-25112.072,0
1.120,1595457114752.665,38281.316,10998.868,-61550.176,-17032.252,-17227.182,-27662.629,-63176.801,-25003.062,0
1.124,1595457114756.664,36489.086,11021.265,-61574.562,-17005.273,-16589.688,-27619.379,-63146.449,-24907.576,0
1.128,1595457114760.664,35242.328,10963.978,-61631.984,-17077.357,-15874.432,-27747.566,-63180.555,-24946.893,0
1.132,1595457114764.664,37435.684,10938.184,-61661.980,-17158.115,-15864.798,-27862.566,-63236.102,-25074.521,0
1.136,1595457114768.664,39026.727,10941.692,-61617.723,-17126.867,-16845.123,-27857.246,-63242.895,-25121.146,0
1.140,1595457114772.664,38220.098,11038.364,-61552.188,-17021.836,-17271.996,-27802.887,-63172.219,-25024.721,0
1.144,1595457114776.664,36446.910,11072.115,-61566.918,-16992.936,-16675.250,-27691.934,-63143.207,-24919.869,0
1.148,1595457114780.664,35177.598,11016.034,-61625.590,-17069.758,-15919.828,-27771.146,-63162.316,-24951.342,0
1.152,1595457114784.663,37423.031,10975.757,-61682.879,-17160.350,-15880.311,-27766.678,-63241.176,-25067.033,0
1.156,1595457114788.663,39030.637,10985.904,-61617.520,-17127.650,-16852.656,-27686.748,-63226.289,-25096.717,0
1.160,1595457114792.663,38224.297,11096.590,-61559.941,-17019.131,-17272.041,-27672.486,-63156.281,-24996.268,0
1.164,1595457114796.663,36470.133,11129.447,-61580.773,-17000.088,-16646.596,-27761.961,-63128.723,-24936.633,0
1.168,1595457114800.663,35218.883,11085.213,-61628.027,-17048.883,-15881.138,-27674.320,-63151.297,-24939.137,0
1.172,1595457114804.663,37415.945,11032.284,-61662.426,-17131.270,-15876.332,-27769.783,-63226.109,-25053.152,0
1.176,1595457114808.663,39041.301,11037.157,-61624.719,-17125.191,-16839.715,-27837.264,-63237.598,-25136.949,0
1.180,1595457114812.663,38286.703,11141.964,-61570.918,-17004.268,-17248.572,-27641.396,-63171.371,-25013.791,0
1.184,1595457114816.662,36584.531,11182.443,-61590.430,-16965.711,-16628.154,-27659.635,-63138.559,-24921.076,0
1.188,1595457114820.662,35303.930,11136.488,-61634.465,-17043.338,-15896.739,-27761.895,-63165.871,-24966.941,0
1.192,1595457114824.662,37490.578,11092.276,-61660.859,-17139.229,-15834.042,-27884.939,-63226.734,-25103.266,0
1.196,1595457114828.662,39126.637,11113.936,-61607.574,-17094.301,-16763.092,-27854.096,-63220.766,-25143.744,0
1.200,1595457114832.662,38344.996,11199.632,-61560.570,-16994.857,-17230.713,-27681.605,-63161.668,-25033.617,0
1.204,1595457114836.662,36644.008,11214.049,-61591.348,-16967.723,-16615.035,-27595.910,-63139.004,-24927.246,0
1.208,1595457114840.662,35353.551,11155.666,-61661.422,-17063.992,-15910.150,-27867.283,-63180.711,-24995.508,0
1.212,1595457114844.661,37554.641,11124.217,-61680.039,-17148.615,-15846.224,-27894.596,-63228.902,-25116.342,0
1.216,1595457114848.661,39201.227,11129.738,-61621.051,-17089.428,-16789.982,-27650.604,-63218.508,-25107.512,0
1.220,1595457114852.661,38410.109,11251.063,-61546.105,-16974.652,-17255.791,-27689.787,-63131.227,-25009.566,0
1.224,1595457114856.661,36708.805,11265.592,-61580.977,-16959.766,-16628.379,-27721.639,-63110.840,-24937.953,0
1.228,1595457114860.661,35408.559,11216.061,-61620.004,-17035.180,-15877.248,-27765.895,-63131.359,-24965.467,0
1.232,1595457114864.661,37562.352,11154.414,-61679.680,-17153.131,-15818.731,-27938.584,-63213.258,-25119.180,0
1.236,1595457114868.661,39201.293,11157.879,-61640.051,-17121.615,-16816.334,-27778.188,-63219.941,-25155.166,0
1.240,1595457114872.661,38444.934,11294.984,-61575.434,-16987.324,-17306.977,-27725.863,-63139.922,-25036.746,0
1.244,1595457114876.660,36780.645,11310.720,-61582.453,-16955.607,-16638.525,-27555.543,-63095.195,-24915.824,0
1.248,1595457114880.660,35441.773,11257.567,-61628.184,-17030.822,-15885.697,-27670.453,-63127.895,-24959.365,0
1.252,1595457114884.660,37566.082,11221.671,-61664.996,-17126.285,-15855.835,-27818.756,-63198.684,-25095.129,0
1.256,1595457114888.660,39214.258,11260.786,-61611.910,-17090.590,-16805.471,-27802.775,-63190.660,-25134.871,0
1.260,1595457114892.660,38466.008,11364.364,-61539.199,-16978.049,-17319.674,-27757.557,-63130.957,-25028.543,0
1.264,1595457114896.660,36792.156,11367.940,-61560.324,-16981.268,-16762.422,-27816.924,-63120.652,-24972.889,0
1.268,1595457114900.660,35476.039,11310.385,-61605.695,-17031.156,-15892.805,-27598.391,-63127.426,-24950.312,0
1.272,1595457114904.659,37643.578,11275.516,-61632.387,-17130.377,-15765.243,-27716.096,-63186.992,-25083.127,0
1.276,1595457114908.659,39318.504,11256.808,-61617.387,-17114.596,-16784.506,-27712.072,-63222.242,-25132.881,0
1.280,1595457114912.659,38549.473,11363.157,-61545.438,-16993.830,-17315.918,-27707.736,-63155.434,-25022.688,0
1.284,1595457114916.659,36888.156,11422.300,-61538.867,-16964.414,-16692.080,-27759.727,-63106.414,-24931.604,0
1.288,1595457114920.659,35545.574,11365.728,-61596.980,-17036.119,-15879.931,-27701.098,-63122.645,-24936.545,0
1.292,1595457114924.659,37617.559,11277.662,-61669.422,-17176.062,-15837.574,-27891.623,-63224.789,-25093.945,0
1.296,1595457114928.659,39273.355,11298.270,-61611.711,-17137.059,-16784.395,-27927.072,-63216.566,-25143.654,0
1.300,1595457114932.659,38536.262,11400.597,-61553.262,-16991.260,-17304.451,-27643.363,-63147.543,-24993.406,0
1.304,1595457114936.658,36869.559,11438.058,-61552.410,-16958.826,-16682.068,-27577.850,-63105.344,-24893.605,0
1.308,1595457114940.658,35475.258,11401.043,-61594.902,-17026.463,-15894.660,-27708.295,-63122.086,-24922.664,0
1.312,1595457114944.658,37583.070,11350.685,-61654.758,-17130.152,-15775.659,-27793.521,-63202.238,-25048.258,0
1.316,1595457114948.658,39256.973,11358.508,-61621.543,-17123.066,-16743.691,-27796.092,-63216.051,-25117.771,0
1.320,1595457114952.658,38547.617,11462.712,-61566.047,-17003.307,-17310.152,-27630.801,-63161.332,-25002.303,0
1.324,1595457114956.658,36866.004,11489.690,-61571.789,-16979.502,-16723.373,-27610.215,-63119.938,-24923.602,0
1.328,1595457114960.658,35411.512,11444.339,-61617.746,-17049.754,-15902.818,-27785.787,-63131.738,-24978.834,0
1.332,1595457114964.657,37463.980,11411.034,-61664.750,-17150.246,-15801.789,-27887.086,-63202.574,-25116.408,0
1.336,1595457114968.657,39234.820,11430.771,-61608.738,-17103.912,-16727.508,-27733.775,-63192.582,-25130.064,0
1.340,1595457114972.657,38565.477,11504.957,-61571.566,-17008.916,-17268.354,-27565.959,-63145.016,-25033.305,0
1.344,1595457114976.657,36922.867,11555.271,-61563.141,-16965.600,-16655.223,-27605.633,-63097.207,-24939.539,0
1.348,1595457114980.657,35418.305,11502.878,-61627.289,-17040.791,-15914.106,-27723.113,-63128.723,-24965.422,0
1.352,1595457114984.657,37464.027,11457.929,-61680.105,-17132.924,-15777.202,-27795.422,-63198.641,-25084.982,0
1.356,1595457114988.657,39230.238,11440.584,-61650.086,-17113.658,-16703.682,-27725.350,-63214.801,-25135.811,0
1.360,1595457114992.657,38570.840,11543.625,-61575.477,-17004.604,-17236.123,-27680.109,-63145.555,-25043.027,0
1.364,1595457114996.656,36950.496,11610.993,-61578.965,-16962.068,-16663.895,-27724.455,-63104.227,-24958.828,0
1.368,1595457115000.656,35471.344,11545.302,-61635.848,-17010.303,-15881.965,-27599.664,-63123.516,-24950.090,0
1.372,1595457115004.656,37498.715,11500.486,-61669.309,-17107.242,-15762.405,-27784.045,-63190.457,-25094.303,0
1.376,1595457115008.656,39276.527,11509.517,-61626.125,-17083.684,-16687.945,-27755.232,-63195.578,-25156.373,0
1.380,1595457115012.656,38663.531,11620.157,-61554.824,-16955.184,-17227.070,-27611.668,-63122.086,-25042.402,0
1.384,1595457115016.656,37053.109,11635.200,-61609.184,-16956.055,-16700.598,-27663.232,-63121.121,-24978.363,0
1.388,1595457115020.656,35539.227,11597.604,-61631.691,-17011.801,-15937.866,-27780.312,-63122.711,-24991.551,0
1.392,1595457115024.656,37485.191,11563.720,-61649.797,-17082.275,-15758.605,-27747.074,-63170.723,-25079.014,0
1.396,1595457115028.656,39241.055,11555.896,-61628.875,-17078.811,-16683.453,-27664.439,-63190.680,-25139.141,0
1.400,1595457115032.655,38634.051,11662.536,-61573.375,-16969.311,-17263.816,-27593.652,-63131.113,-25044.057,0
1.404,1595457115036.655,37023.809,11699.350,-61566.762,-16945.326,-16693.043,-27752.686,-63080.711,-24974.072,0
1.408,1595457115040.655,35500.402,11668.906,-61599.887,-16983.994,-15875.349,-27660.350,-63083.371,-24965.355,0
1.412,1595457115044.655,37423.949,11620.471,-61663.430,-17089.025,-15781.002,-27756.172,-63167.613,-25098.080,0
1.416,1595457115048.655,39136.316,11591.503,-61658.066,-17105.678,-16769.418,-27838.828,-63206.125,-25191.867,0
1.420,1595457115052.655,38556.242,11706.994,-61565.129,-16954.154,-17301.166,-27531.760,-63115.848,-25026.555,0
1.424,1595457115056.655,36998.305,11746.087,-61570.961,-16923.801,-16691.053,-27609.857,-63069.043,-24952.906,0
1.428,1595457115060.655,35473.914,11694.857,-61624.496,-17009.275,-15885.921,-27721.906,-63097.855,-24997.207,0
1.432,1595457115064.654,37406.852,11663.363,-61677.469,-17092.781,-15752.704,-27727.518,-63171.035,-25097.744,0
1.436,1595457115068.654,39133.230,11651.695,-61641.395,-17089.070,-16701.357,-27774.902,-63187.621,-25168.801,0
1.440,1595457115072.654,38582.285,11756.928,-61572.371,-16972.170,-17263.012,-27641.799,-63123.359,-25059.500,0
1.444,1595457115076.654,37081.410,11791.015,-61581.086,-16946.176,-16726.592,-27638.602,-63097.094,-24965.355,0
1.448,1595457115080.654,35559.566,11776.352,-61600.848,-16980.105,-15942.381,-27775.283,-63094.703,-24956.973,0
1.452,1595457115084.654,37400.637,11728.094,-61646.379,-17081.047,-15813.881,-27800.428,-63165.871,-25066.586,0
1.456,1595457115088.654,39110.926,11717.812,-61596.980,-17052.057,-16690.494,-27666.273,-63173.785,-25101.299,0
1.460,1595457115092.653,38532.863,11814.976,-61531.578,-16927.980,-17233.932,-27522.061,-63114.352,-24985.158,0
1.464,1595457115096.653,37107.000,11848.570,-61551.359,-16922.035,-16635.285,-27606.215,-63086.121,-24911.086,0
1.468,1595457115100.653,35590.367,11801.564,-61608.738,-16988.174,-15878.835,-27701.521,-63108.316,-24915.287,0
1.472,1595457115104.653,37414.898,11751.898,-61659.742,-17088.936,-15768.439,-27714.820,-63190.504,-25023.961,0
1.476,1595457115108.653,39127.195,11765.265,-61605.941,-17060.930,-16693.980,-27706.662,-63193.363,-25063.725,0
1.480,1595457115112.653,38572.516,11872.620,-61528.762,-16942.488,-17234.514,-27761.895,-63116.250,-24982.299,0
1.484,1595457115116.653,37150.699,11912.742,-61531.938,-16912.178,-16601.311,-27662.586,-63066.762,-24887.684,0
1.488,1595457115120.653,35629.328,11855.007,-61597.047,-16967.902,-15874.544,-27568.932,-63090.211,-24872.127,0
1.492,1595457115124.652,37423.012,11781.872,-61659.742,-17077.984,-15757.823,-27669.783,-63169.379,-25004.002,0
1.496,1595457115128.652,39088.461,11766.941,-61629.613,-17079.727,-16666.936,-27722.600,-63187.820,-25090.012,0
1.500,1595457115132.652,38522.695,11883.282,-61545.078,-16949.439,-17226.443,-27676.891,-63101.164,-24986.566,0
1.504,1595457115136.652,37114.223,11939.050,-61548.902,-16912.826,-16621.248,-27627.090,-63052.211,-24894.143,0
1.508,1595457115140.652,35584.891,11887.372,-61604.758,-16984.688,-15903.959,-27693.699,-63086.879,-24929.682,0
1.512,1595457115144.652,37329.176,11839.741,-61651.766,-17089.049,-15795.955,-27804.139,-63160.215,-25054.516,0
1.516,1595457115148.652,38984.660,11833.550,-61614.168,-17057.375,-16678.379,-27650.471,-63167.145,-25080.623,0
1.520,1595457115152.651,38426.066,11935.519,-61560.523,-16957.574,-17241.420,-27614.059,-63112.160,-25001.811,0
1.524,1595457115156.651,37087.062,11984.916,-61573.043,-16936.832,-16623.014,-27739.318,-63074.562,-24938.377,0
1.528,1595457115160.651,35636.859,11918.486,-61632.230,-16993.986,-15882.076,-27658.875,-63103.285,-24941.797,0
1.532,1595457115164.651,37360.336,11876.309,-61669.578,-17081.738,-15733.438,-27699.822,-63159.680,-25043.609,0
1.536,1595457115168.651,38941.656,11883.886,-61630.305,-17064.215,-16684.615,-27697.654,-63173.738,-25102.842,0
1.540,1595457115172.651,38392.160,11985.117,-61557.707,-16962.672,-17246.918,-27620.631,-63112.340,-25016.631,0
1.544,1595457115176.651,37121.934,12037.777,-61569.555,-16918.930,-16627.842,-27608.314,-63075.078,-24919.803,0
1.548,1595457115180.651,35707.672,11971.125,-61616.805,-16985.760,-15836.322,-27728.857,-63091.125,-24949.418,0
1.552,1595457115184.650,37401.148,11923.247,-61668.641,-17065.221,-15739.159,-27729.686,-63163.211,-25039.004,0
1.556,1595457115188.650,38938.504,11914.820,-61636.898,-17057.889,-16692.439,-27686.031,-63178.789,-25094.146,0
1.560,1595457115192.650,38401.973,12005.301,-61574.113,-16960.637,-17237.174,-27678.119,-63129.035,-25028.141,0
1.564,1595457115196.650,37189.391,12072.423,-61565.688,-16911.441,-16628.088,-27642.871,-63078.789,-24926.105,0
1.568,1595457115200.650,35786.953,12015.313,-61603.773,-16963.879,-15844.324,-27691.643,-63088.422,-24938.467,0
1.572,1595457115204.650,37437.406,11973.293,-61651.609,-17051.898,-15743.607,-27766.297,-63160.262,-25037.395,0
1.576,1595457115208.650,39003.746,11977.696,-61619.285,-17040.566,-16629.898,-27753.914,-63168.555,-25084.043,0
1.580,1595457115212.649,38481.344,12062.588,-61556.879,-16935.135,-17170.207,-27600.537,-63109.770,-24991.775,0
1.584,1595457115216.649,37268.492,12097.680,-61554.938,-16922.461,-16551.467,-27642.803,-63073.516,-24930.822,0
1.588,1595457115220.649,35842.117,12038.984,-61614.371,-16982.498,-15819.402,-27707.736,-63100.090,-24943.271,0
1.592,1595457115224.649,37455.398,11987.933,-61671.230,-17076.330,-15722.418,-27828.613,-63166.363,-25052.059,0
1.596,1595457115228.649,39008.711,11996.605,-61628.586,-17046.625,-16672.277,-27684.266,-63178.031,-25084.424,0
1.600,1595457115232.649,38483.355,12104.564,-61555.316,-16927.221,-17232.635,-27693.318,-63106.324,-24996.514,0
1.604,1595457115236.649,37289.613,12147.077,-61553.504,-16892.396,-16589.150,-27591.529,-63058.828,-24903.150,0
1.608,1595457115240.649,35846.297,12082.392,-61616.359,-16962.357,-15842.491,-27678.633,-63088.152,-24912.203,0
1.612,1595457115244.648,37447.062,12038.515,-61658.492,-17061.266,-15726.575,-27807.805,-63155.543,-25029.975,0
1.616,1595457115248.648,38983.027,12044.326,-61602.637,-17041.484,-16624.848,-27799.668,-63158.539,-25083.977,0
1.620,1595457115252.648,38479.512,12160.198,-61518.281,-16906.389,-17161.580,-27658.629,-63084.621,-24973.000,0
1.624,1595457115256.648,37293.660,12198.800,-61534.754,-16874.180,-16581.932,-27559.834,-63055.273,-24874.541,0
1.628,1595457115260.648,35827.832,12120.770,-61608.738,-16963.633,-15858.025,-27621.547,-63098.770,-24908.447,0
1.632,1595457115264.648,37413.152,12073.831,-61652.793,-17062.158,-15726.374,-27776.422,-63164.820,-25029.281,0
1.636,1595457115268.648,38980.188,12088.672,-61600.914,-17037.146,-16621.986,-27688.938,-63166.230,-25067.502,0
1.640,1595457115272.647,38502.621,12204.566,-61519.711,-16915.330,-17178.254,-27715.604,-63087.574,-24969.268,0
1.644,1595457115276.647,37335.793,12250.901,-61521.008,-16875.230,-16553.031,-27673.537,-63048.523,-24878.967,0
1.648,1595457115280.647,35855.641,12183.712,-61590.363,-16944.098,-15808.808,-27568.305,-63082.344,-24869.914,0
1.652,1595457115284.647,37395.340,12131.387,-61646.602,-17059.477,-15693.338,-27805.145,-63157.691,-25005.633,0
1.656,1595457115288.647,38975.094,12132.438,-61601.539,-17034.777,-16604.105,-27735.205,-63162.496,-25041.574,0
1.660,1595457115292.647,38480.113,12226.359,-61542.352,-16933.436,-17163.904,-27632.008,-63101.543,-24953.062,0
1.664,1595457115296.647,37312.930,12292.141,-61535.312,-16894.141,-16579.764,-27726.176,-63059.477,-24878.564,0
1.668,1595457115300.647,35841.266,12215.921,-61603.684,-16957.105,-15813.546,-27664.172,-63087.750,-24869.533,0
1.672,1595457115304.646,37361.789,12183.108,-61640.051,-17029.816,-15716.249,-27666.697,-63151.230,-24947.496,0
1.676,1595457115308.646,38940.426,12197.950,-61583.391,-17019.176,-16580.232,-27628.879,-63142.738,-24998.994,0
1.680,1595457115312.646,38496.789,12298.622,-61516.535,-16917.967,-17153.354,-27572.262,-63081.738,-24922.553,0
1.684,1595457115316.646,37321.801,12331.100,-61537.211,-16892.510,-16597.756,-27676.152,-63056.637,-24854.424,0
1.688,1595457115320.646,35804.207,12261.585,-61597.227,-16949.975,-15883.193,-27691.754,-63087.773,-24856.189,0
1.692,1595457115324.646,37295.070,12191.155,-61658.895,-17073.580,-15738.422,-27805.256,-63162.695,-24980.555,0
1.696,1595457115328.646,38901.801,12202.442,-61616.516,-17064.350,-16639.979,-27738.469,-63174.141,-25035.875,0
1.700,1595457115332.646,38490.617,12322.472,-61530.461,-16929.055,-17174.297,-27637.238,-63086.566,-24933.102,0
1.704,1595457115336.646,37355.934,12372.405,-61550.957,-16904.535,-16570.041,-27628.543,-63056.547,-24846.779,0
1.708,1595457115340.645,35839.812,12296.610,-61606.859,-16976.574,-15853.846,-27692.178,-63084.758,-24862.471,0
1.712,1595457115344.645,37320.574,12251.862,-61642.645,-17058.873,-15684.845,-27759.301,-63136.723,-24955.521,0
1.716,1595457115348.645,38909.871,12265.967,-61610.078,-17055.520,-16594.225,-27737.619,-63155.699,-25017.436,0
1.720,1595457115352.645,38513.641,12349.539,-61544.520,-16946.801,-17169.447,-27570.316,-63099.730,-24914.594,0
1.724,1595457115356.645,37387.227,12393.572,-61567.699,-16926.305,-16601.266,-27592.334,-63070.273,-24842.176,0
1.728,1595457115360.645,35854.297,12349.227,-61619.734,-16979.926,-15868.017,-27717.279,-63081.582,-24848.611,0
1.732,1595457115364.645,37306.090,12305.819,-61666.227,-17079.570,-15688.265,-27841.912,-63148.191,-24964.617,0
1.736,1595457115368.645,38945.926,12318.783,-61610.859,-17054.760,-16584.613,-27712.049,-63154.336,-24992.736,0
1.740,1595457115372.644,38559.016,12407.117,-61544.699,-16936.832,-17181.361,-27594.457,-63096.469,-24895.172,0
1.744,1595457115376.644,37432.219,12445.696,-61580.281,-16935.268,-16655.156,-27705.680,-63087.371,-24839.002,0
1.748,1595457115380.644,35887.578,12392.008,-61635.000,-16999.082,-15937.263,-27744.146,-63105.699,-24845.080,0
1.752,1595457115384.644,37315.746,12368.002,-61650.223,-17065.020,-15686.968,-27842.383,-63131.383,-24924.027,0
1.756,1595457115388.644,38974.668,12386.353,-61595.727,-17039.539,-16576.389,-27737.352,-63139.250,-24956.414,0
1.760,1595457115392.644,38601.438,12471.401,-61538.551,-16936.520,-17183.350,-27579.234,-63082.656,-24868.975,0
1.764,1595457115396.644,37479.984,12504.325,-61570.293,-16925.836,-16678.000,-27686.434,-63075.703,-24812.559,0
1.768,1595457115400.643,35936.551,12436.645,-61620.738,-16977.871,-15945.667,-27595.955,-63089.695,-24792.600,0
1.772,1595457115404.643,37320.238,12393.886,-61653.285,-17075.660,-15686.856,-27736.613,-63128.766,-24905.229,0
1.776,1595457115408.643,38934.480,12418.718,-61597.270,-17047.361,-16545.678,-27810.553,-63126.309,-24956.684,0
1.780,1595457115412.643,38567.711,12503.543,-61553.641,-16945.371,-17184.109,-27678.969,-63084.758,-24881.021,0
1.784,1595457115416.643,37486.711,12535.551,-61583.324,-16933.793,-16616.152,-27661.869,-63062.227,-24805.764,0
1.788,1595457115420.643,35923.699,12502.135,-61613.879,-16972.260,-15892.201,-27640.703,-63062.984,-24787.904,0
1.792,1595457115424.643,37304.367,12464.539,-61644.254,-17058.693,-15706.570,-27726.221,-63120.562,-24882.207,0
1.796,1595457115428.643,38939.039,12460.113,-61616.270,-17064.125,-16600.551,-27693.967,-63143.922,-24944.926,0
1.800,1595457115432.642,38588.922,12538.546,-61550.020,-16960.459,-17217.436,-27668.799,-63087.371,-24873.869,0
1.804,1595457115436.642,37500.883,12611.613,-61550.266,-16916.023,-16696.775,-27735.943,-63057.465,-24785.938,0
1.808,1595457115440.642,35928.016,12554.997,-61598.500,-16968.014,-15960.934,-27699.375,-63072.887,-24772.258,0
1.812,1595457115444.642,37294.422,12501.062,-61638.508,-17062.561,-15670.338,-27694.102,-63129.863,-24860.033,0
1.816,1595457115448.642,38980.680,12498.134,-61601.852,-17053.889,-16551.846,-27748.260,-63151.387,-24925.436,0
1.820,1595457115452.642,38664.180,12588.413,-61533.480,-16949.127,-17193.699,-27652.303,-63101.164,-24833.859,0
1.824,1595457115456.642,37560.070,12639.598,-61536.496,-16916.246,-16615.951,-27604.537,-63054.516,-24740.252,0
1.828,1595457115460.641,35908.477,12571.604,-61600.535,-16974.697,-15911.960,-27624.855,-63092.266,-24738.598,0
1.832,1595457115464.641,37246.500,12505.957,-61662.336,-17082.275,-15754.984,-27790.549,-63173.582,-24854.469,0
1.836,1595457115468.641,38984.684,12518.966,-61609.676,-17072.283,-16546.639,-27743.119,-63158.496,-24904.135,0
1.840,1595457115472.641,38706.828,12633.720,-61523.754,-16946.041,-17149.084,-27602.191,-63081.828,-24797.873,0
1.844,1595457115476.641,37603.367,12673.573,-61536.027,-16921.545,-16651.268,-27634.242,-63053.891,-24722.906,0
1.848,1595457115480.641,35942.789,12618.543,-61584.641,-16964.885,-15934.200,-27651.723,-63063.121,-24708.848,0
1.852,1595457115484.641,37260.379,12571.917,-61644.613,-17065.064,-15702.904,-27707.467,-63131.672,-24812.469,0
1.856,1595457115488.641,38988.637,12558.305,-61622.930,-17069.244,-16545.945,-27720.521,-63153.176,-24883.793,0
1.860,1595457115492.640,38721.938,12663.693,-61534.418,-16950.557,-17239.141,-27652.750,-63082.945,-24798.209,0
1.864,1595457115496.640,37613.469,12715.415,-61523.398,-16924.740,-16649.479,-27658.518,-63027.805,-24714.391,0
1.868,1595457115500.640,35914.246,12669.996,-61571.031,-16956.211,-15921.349,-27608.896,-63045.148,-24689.803,0
1.872,1595457115504.640,37177.656,12633.630,-61620.941,-17050.402,-15646.913,-27731.830,-63096.914,-24783.367,0
1.876,1595457115508.640,38970.734,12608.686,-61611.195,-17077.984,-16497.756,-27752.371,-63136.926,-24871.143,0
1.880,1595457115512.640,38763.914,12721.294,-61516.871,-16952.590,-17155.434,-27575.256,-63063.523,-24770.561,0
1.884,1595457115516.640,37634.793,12796.619,-61515.441,-16899.662,-16648.584,-27577.156,-63015.957,-24672.637,0
1.888,1595457115520.639,35889.703,12729.520,-61581.758,-16964.639,-15937.911,-27607.801,-63047.809,-24680.504,0
1.892,1595457115524.639,37178.281,12667.717,-61646.152,-17077.090,-15672.395,-27741.510,-63121.102,-24804.109,0
1.896,1595457115528.639,39000.305,12644.023,-61646.109,-17097.877,-16519.102,-27810.264,-63170.742,-24899.842,0
1.900,1595457115532.639,38837.184,12762.756,-61528.895,-16949.461,-17127.516,-27586.410,-63077.535,-24772.750,0
1.904,1595457115536.639,37736.070,12836.763,-61529.387,-16912.312,-16636.023,-27564.596,-63038.824,-24679.141,0
1.908,1595457115540.639,35962.770,12783.499,-61586.766,-16966.113,-15932.010,-27679.506,-63059.277,-24685.623,0
1.912,1595457115544.639,37219.453,12711.951,-61652.324,-17089.695,-15653.999,-27795.600,-63135.941,-24815.801,0
1.916,1595457115548.639,39113.629,12699.725,-61636.855,-17107.242,-16462.238,-27720.855,-63172.734,-24886.834,0
1.920,1595457115552.638,39007.102,12798.362,-61575.590,-16985.672,-17165.646,-27588.488,-63121.793,-24794.029,0
1.924,1595457115556.638,37867.453,12890.653,-61542.711,-16928.518,-16665.572,-27694.480,-63045.934,-24702.119,0
1.928,1595457115560.638,36023.188,12832.427,-61590.855,-16975.658,-15959.368,-27721.146,-63063.945,-24697.582,0
1.932,1595457115564.638,37303.539,12762.197,-61659.051,-17091.148,-15678.563,-27712.721,-63146.223,-24802.635,0
1.936,1595457115568.638,39308.270,12752.742,-61632.250,-17098.592,-16408.281,-27748.707,-63157.152,-24881.201,0
1.940,1595457115572.638,39203.395,12859.539,-61558.512,-16985.492,-17132.611,-27690.369,-63102.012,-24807.910,0
1.944,1595457115576.638,37994.074,12927.578,-61550.129,-16919.420,-16768.211,-27631.248,-63058.402,-24696.441,0
1.948,1595457115580.637,36066.551,12847.134,-61605.340,-16976.508,-16039.231,-27660.574,-63070.383,-24699.258,0
1.952,1595457115584.637,37347.594,12785.063,-61663.676,-17091.016,-15644.812,-27774.479,-63132.477,-24819.086,0
1.956,1595457115588.637,39442.289,12789.198,-61631.914,-17082.543,-16423.412,-27662.428,-63152.281,-24858.939,0
1.960,1595457115592.637,39442.512,12883.031,-61569.980,-16978.406,-17157.936,-27612.830,-63094.168,-24777.914,0
1.964,1595457115596.637,38234.961,12945.325,-61567.988,-16929.502,-16760.701,-27608.225,-63047.965,-24679.498,0
1.968,1595457115600.637,36273.461,12876.683,-61605.941,-16987.615,-16074.815,-27706.975,-63065.555,-24686.562,0
1.972,1595457115604.637,37541.430,12826.839,-61651.449,-17094.301,-15656.994,-27817.236,-63118.820,-24805.541,0
1.976,1595457115608.637,39719.898,12812.153,-61640.008,-17094.838,-16393.506,-27755.322,-63153.465,-24866.672,0
1.980,1595457115612.636,39732.527,12901.561,-61569.465,-16978.184,-17160.016,-27622.150,-63098.727,-24779.031,0
1.984,1595457115616.636,38429.441,12982.988,-61567.387,-16935.781,-16796.240,-27668.016,-63058.895,-24701.047,0
1.988,1595457115620.636,36402.230,12930.641,-61598.789,-16974.539,-16095.625,-27664.418,-63065.066,-24691.100,0
1.992,1595457115624.636,37639.508,12868.592,-61651.027,-17084.623,-15662.828,-27694.348,-63128.051,-24797.650,0
1.996,1595457115628.636,39885.746,12842.932,-61622.328,-17106.951,-16339.795,-27811.426,-63149.688,-24896.176,0
2.000,1595457115632.636,40017.309,12945.772,-61548.387,-16970.986,-17049.643,-27614.662,-63090.391,-24786.766,0
2.004,1595457115636.636,38738.566,13018.952,-61547.785,-16918.459,-16732.627,-27615.266,-63057.465,-24685.332,0
2.008,1595457115640.635,36518.031,12974.494,-61584.418,-16953.686,-16093.277,-27611.176,-63065.043,-24653.482,0
2.012,1595457115644.635,37680.348,12896.777,-61650.625,-17086.590,-15645.505,-27806.932,-63135.473,-24794.498,0
2.016,1595457115648.635,40116.934,12880.952,-61625.121,-17106.371,-16278.507,-27705.902,-63156.887,-24866.426,0
2.020,1595457115652.635,40383.320,12946.912,-61578.988,-17012.537,-17046.938,-27652.170,-63119.090,-24812.670,0
2.024,1595457115656.635,39025.941,13028.898,-61559.941,-16945.506,-16784.596,-27695.354,-63062.762,-24706.389,0
2.028,1595457115660.635,36662.066,12992.018,-61595.594,-16961.039,-16123.095,-27624.141,-63058.113,-24663.518,0
2.032,1595457115664.635,37695.008,12908.825,-61662.785,-17095.619,-15716.249,-27742.961,-63135.539,-24795.930,0
2.036,1595457115668.635,40069.613,12877.688,-61650.469,-17133.416,-16286.956,-27778.545,-63153.355,-24905.766,0
2.040,1595457115672.635,40343.758,12988.106,-61574.852,-16998.926,-17005.787,-27589.047,-63090.344,-24799.953,0
2.044,1595457115676.634,38956.383,13090.165,-61546.934,-16920.852,-16737.678,-27583.236,-63033.863,-24677.219,0
2.048,1595457115680.634,36487.008,13040.879,-61587.277,-16957.598,-16119.787,-27647.387,-63041.105,-24665.707,0
2.052,1595457115684.634,37501.129,12975.231,-61640.164,-17071.367,-15625.366,-27715.156,-63099.152,-24769.711,0
2.056,1595457115688.634,39987.805,12947.226,-61636.789,-17098.436,-16268.046,-27732.926,-63145.844,-24859.789,0
2.060,1595457115692.634,40338.953,13036.677,-61577.332,-17004.045,-17042.088,-27660.127,-63098.770,-24792.555,0
2.064,1595457115696.634,38892.906,13128.386,-61572.551,-16932.809,-16805.828,-27654.182,-63046.492,-24675.564,0
2.068,1595457115700.634,36310.207,13102.659,-61589.516,-16930.953,-16153.247,-27569.379,-63025.816,-24618.635,0
2.072,1595457115704.634,37275.422,13043.182,-61639.582,-17052.168,-15606.882,-27669.135,-63080.734,-24738.910,0
2.076,1595457115708.633,39812.188,13007.016,-61643.965,-17095.262,-16194.375,-27695.174,-63130.934,-24848.188,0
2.080,1595457115712.633,40201.355,13094.076,-61580.172,-16994.031,-16997.205,-27647.387,-63092.133,-24791.996,0
2.084,1595457115716.633,38736.578,13195.754,-61550.219,-16905.049,-16792.016,-27568.998,-63029.078,-24658.131,0
2.088,1595457115720.633,36110.449,13148.994,-61583.547,-16921.678,-16166.413,-27587.260,-63027.625,-24618.926,0
2.092,1595457115724.633,37045.711,13071.121,-61648.812,-17071.279,-15643.047,-27742.760,-63104.828,-24763.117,0
2.096,1595457115728.633,39628.012,13059.319,-61639.559,-17086.188,-16208.501,-27714.754,-63148.660,-24852.412,0
2.100,1595457115732.633,40039.148,13145.709,-61573.020,-16978.832,-17015.176,-27710.193,-63100.984,-24799.953,0
2.104,1595457115736.632,38570.504,13223.694,-61553.840,-16901.785,-16804.398,-27602.369,-63048.590,-24669.730,0
2.108,1595457115740.632,35942.074,13175.034,-61575.543,-16916.604,-16186.418,-27548.592,-63042.223,-24621.943,0
2.112,1595457115744.632,36831.004,13112.628,-61629.703,-17033.795,-15642.331,-27658.404,-63095.551,-24737.234,0
2.116,1595457115748.632,39409.098,13080.308,-61620.293,-17082.432,-16177.052,-27751.500,-63130.777,-24861.555,0
2.120,1595457115752.632,39811.273,13159.790,-61568.816,-16971.455,-17024.340,-27635.830,-63094.168,-24800.936,0
2.124,1595457115756.632,38358.297,13243.051,-61553.527,-16904.109,-16844.676,-27584.131,-63041.105,-24684.439,0
2.128,1595457115760.632,35771.797,13192.580,-61596.512,-16946.623,-16223.298,-27648.414,-63042.734,-24670.088,0
2.132,1595457115764.632,36686.027,13129.168,-61647.898,-17053.910,-15698.658,-27715.090,-63095.262,-24772.393,0
2.136,1595457115768.631,39257.641,13102.056,-61635.582,-17093.607,-16235.904,-27729.461,-63125.059,-24876.127,0
2.140,1595457115772.631,39677.945,13183.550,-61578.672,-17005.541,-17045.529,-27722.264,-63080.555,-24832.676,0
2.144,1595457115776.631,38320.992,13289.431,-61551.426,-16913.342,-16823.129,-27517.209,-63014.887,-24690.027,0
2.148,1595457115780.631,35775.887,13245.353,-61589.781,-16954.982,-16215.095,-27571.814,-63014.504,-24674.471,0
2.152,1595457115784.631,36639.871,13180.398,-61643.047,-17087.572,-15695.551,-27675.996,-63073.180,-24797.359,0
2.156,1595457115788.631,39161.930,13132.007,-61649.305,-17148.996,-16286.486,-27827.316,-63124.410,-24934.912,0
2.160,1595457115792.631,39620.789,13208.204,-61586.297,-17030.465,-17102.102,-27658.785,-63083.953,-24869.467,0
2.164,1595457115796.630,38267.258,13322.332,-61550.512,-16929.031,-16912.223,-27519.869,-63017.723,-24726.258,0
2.168,1595457115800.630,35684.602,13279.060,-61577.938,-16963.207,-16269.946,-27603.576,-63007.664,-24705.672,0
2.172,1595457115804.630,36505.359,13202.259,-61637.547,-17094.926,-15704.871,-27789.789,-63073.355,-24831.379,0
2.176,1595457115808.630,39037.746,13173.917,-61631.512,-17125.146,-16287.850,-27761.447,-63119.312,-24926.531,0
2.180,1595457115812.630,39481.895,13249.622,-61562.828,-17006.436,-17089.695,-27556.035,-63070.699,-24844.188,0
2.184,1595457115816.630,38150.582,13353.334,-61546.375,-16922.482,-16884.775,-27592.982,-63011.867,-24736.697,0
2.188,1595457115820.630,35642.805,13301.567,-61588.844,-16970.852,-16262.436,-27672.152,-63016.383,-24726.191,0
2.192,1595457115824.630,36480.863,13225.549,-61646.086,-17093.250,-15704.290,-27677.092,-63072.820,-24827.266,0
2.196,1595457115828.629,39002.207,13198.324,-61643.492,-17125.504,-16269.700,-27692.045,-63114.418,-24934.398,0
2.200,1595457115832.629,39431.246,13275.080,-61585.828,-17029.123,-17097.318,-27638.289,-63073.938,-24890.947,0
2.204,1595457115836.629,38151.988,13377.340,-61551.160,-16948.656,-16893.738,-27599.150,-63012.113,-24768.324,0
2.208,1595457115840.629,35652.664,13326.288,-61580.773,-16988.732,-16256.602,-27736.838,-63008.738,-24761.061,0
2.212,1595457115844.629,36460.523,13254.204,-61640.031,-17102.727,-15695.864,-27730.266,-63070.340,-24858.000,0
2.216,1595457115848.629,38990.629,13222.353,-61635.445,-17134.936,-16252.735,-27692.916,-63116.273,-24943.316,0
2.220,1595457115852.629,39486.859,13304.786,-61565.598,-17028.475,-17077.180,-27671.414,-63072.082,-24896.334,0
2.224,1595457115856.628,38234.895,13424.368,-61535.199,-16935.268,-16900.422,-27606.482,-63005.586,-24761.039,0
2.228,1595457115860.628,35743.098,13384.246,-61568.906,-16966.047,-16257.317,-27592.088,-63000.914,-24723.041,0
2.232,1595457115864.628,36448.855,13292.783,-61636.117,-17103.957,-15708.023,-27733.283,-63068.371,-24846.557,0
2.236,1595457115868.628,38904.707,13248.504,-61637.996,-17149.934,-16269.678,-27780.289,-63118.195,-24964.328,0
2.240,1595457115872.628,39385.672,13338.090,-61565.484,-17028.475,-17086.209,-27660.395,-63069.602,-24892.355,0
2.244,1595457115876.628,38180.086,13453.201,-61541.949,-16926.238,-16879.857,-27583.840,-63008.180,-24749.191,0
2.248,1595457115880.628,35719.672,13422.825,-61568.258,-16955.205,-16249.718,-27704.070,-63001.297,-24726.059,0
2.252,1595457115884.628,36466.715,13331.005,-61632.430,-17078.654,-15681.269,-27700.092,-63071.234,-24830.082,0
2.256,1595457115888.627,38987.363,13273.493,-61641.035,-17126.666,-16248.398,-27677.383,-63128.590,-24943.719,0
2.260,1595457115892.627,39497.969,13354.898,-61576.504,-17023.602,-17075.258,-27662.428,-63087.797,-24907.621,0
2.264,1595457115896.627,38335.723,13484.941,-61534.863,-16919.846,-16843.381,-27560.057,-63010.840,-24770.672,0
2.268,1595457115900.627,35937.738,13466.099,-61562.379,-16938.711,-16222.940,-27594.391,-63005.945,-24729.746,0
2.272,1595457115904.627,36612.781,13379.239,-61623.711,-17067.746,-15683.123,-27738.537,-63070.297,-24843.113,0
2.276,1595457115908.627,38973.016,13331.027,-61614.215,-17109.590,-16231.076,-27711.268,-63115.090,-24948.770,0
2.280,1595457115912.627,39278.988,13394.752,-61555.094,-17008.537,-17058.807,-27607.086,-63077.648,-24901.027,0
2.284,1595457115916.626,38024.629,13490.887,-61546.266,-16936.117,-16856.254,-27604.158,-63028.184,-24794.789,0
2.288,1595457115920.626,35647.633,13448.664,-61578.184,-16975.055,-16222.002,-27680.914,-63028.477,-24781.043,0
2.292,1595457115924.626,36272.320,13376.178,-61631.871,-17087.080,-15694.813,-27749.801,-63083.727,-24876.193,0
2.296,1595457115928.626,38606.289,13329.552,-61627.402,-17120.273,-16237.089,-27679.080,-63121.367,-24965.176,0
2.300,1595457115932.626,38958.352,13423.295,-61553.750,-17008.582,-17035.672,-27593.004,-63066.473,-24910.326,0
2.304,1595457115936.626,37798.562,13545.135,-61541.613,-16927.803,-16830.395,-27579.035,-63015.445,-24802.791,0
2.308,1595457115940.626,35525.996,13499.761,-61574.227,-16959.943,-16207.696,-27616.965,-63013.164,-24776.305,0
2.312,1595457115944.626,36186.625,13412.142,-61620.719,-17072.820,-15691.014,-27657.713,-63066.586,-24868.572,0
2.316,1595457115948.625,38490.754,13356.910,-61614.035,-17115.869,-16248.176,-27731.049,-63109.230,-24979.615,0
2.320,1595457115952.625,38853.500,13439.857,-61542.309,-17003.217,-17043.271,-27654.002,-63061.555,-24921.635,0
2.324,1595457115956.625,37751.090,13551.482,-61537.234,-16930.484,-16823.375,-27602.146,-63019.422,-24810.324,0
2.328,1595457115960.625,35543.543,13514.602,-61586.562,-16961.732,-16198.600,-27578.520,-63037.953,-24771.990,0
2.332,1595457115964.625,36189.953,13444.216,-61623.152,-17071.949,-15663.834,-27701.186,-63077.828,-24865.197,0
2.336,1595457115968.625,38477.676,13394.104,-61617.723,-17116.787,-16203.673,-27718.576,-63114.418,-24968.395,0
2.340,1595457115972.625,38794.871,13462.165,-61560.414,-17015.377,-17016.584,-27615.824,-63079.727,-24916.650,0
2.344,1595457115976.625,37694.809,13586.597,-61532.918,-16930.238,-16800.264,-27585.807,-63018.617,-24792.398,0
2.348,1595457115980.625,35547.832,13539.479,-61578.137,-16959.943,-16149.403,-27609.834,-63023.355,-24758.938,0
2.352,1595457115984.624,36188.211,13444.574,-61641.059,-17077.715,-15642.107,-27691.910,-63087.484,-24859.252,0
2.356,1595457115988.624,38432.906,13403.647,-61622.082,-17102.459,-16205.395,-27642.961,-63116.855,-24942.422,0
2.360,1595457115992.624,38693.820,13483.936,-61546.777,-17000.223,-17025.725,-27619.715,-63067.031,-24899.172,0
2.364,1595457115996.624,37649.859,13603.159,-61531.734,-16930.172,-16790.406,-27613.479,-63013.836,-24792.285,0
2.368,1595457116000.624,35599.020,13562.904,-61577.891,-16961.441,-16149.962,-27624.363,-63024.227,-24762.424,0
2.372,1595457116004.624,36207.992,13469.094,-61631.914,-17078.633,-15664.795,-27696.627,-63083.773,-24851.406,0
2.376,1595457116008.624,38412.656,13409.974,-61616.605,-17114.953,-16207.830,-27655.074,-63111.043,-24933.729,0
2.380,1595457116012.624,38617.844,13480.292,-61544.051,-17012.605,-17023.871,-27636.389,-63058.875,-24893.182,0
2.384,1595457116016.623,37623.371,13610.268,-61527.777,-16936.162,-16778.225,-27549.709,-63011.844,-24776.395,0
2.388,1595457116020.623,35651.879,13591.000,-61566.984,-16965.354,-16121.083,-27566.047,-63012.719,-24738.932,0
2.392,1595457116024.623,36280.547,13504.901,-61622.438,-17071.926,-15653.664,-27686.658,-63068.484,-24828.451,0
2.396,1595457116028.623,38409.258,13423.966,-61610.191,-17116.229,-16234.094,-27720.252,-63103.801,-24937.953,0
2.400,1595457116032.623,38593.324,13472.223,-61550.355,-17026.240,-17036.543,-27612.271,-63065.469,-24896.535,0
2.404,1595457116036.623,37601.801,13579.087,-61536.340,-16952.143,-16801.246,-27593.518,-63017.902,-24793.582,0
2.408,1595457116040.623,35677.496,13527.700,-61573.867,-16980.172,-16147.257,-27596.938,-63020.652,-24757.730,0
2.412,1595457116044.622,36319.035,13430.180,-61637.793,-17087.371,-15670.428,-27676.555,-63084.129,-24844.389,0
2.416,1595457116048.622,38448.039,13377.988,-61619.129,-17111.758,-16264.648,-27674.879,-63113.008,-24928.945,0
2.420,1595457116052.622,38578.641,13431.073,-61540.965,-17017.500,-17069.803,-27687.262,-63058.180,-24898.926,0
2.424,1595457116056.622,37612.309,13508.410,-61539.625,-16950.467,-16788.662,-27567.434,-63021.031,-24788.643,0
2.428,1595457116060.622,35765.160,13449.223,-61590.922,-16990.924,-16130.493,-27612.338,-63033.258,-24765.195,0
2.432,1595457116064.622,36375.340,13353.848,-61644.098,-17092.893,-15663.543,-27760.775,-63084.777,-24858.738,0
2.436,1595457116068.622,38492.027,13277.874,-61629.367,-17118.508,-16261.341,-27651.453,-63120.094,-24921.770,0
2.440,1595457116072.622,38600.387,13309.771,-61558.066,-17030.598,-17058.090,-27570.965,-63072.172,-24884.375,0
2.444,1595457116076.621,37622.926,13436.080,-61548.992,-16959.252,-16817.139,-27621.613,-63030.152,-24795.125,0
2.448,1595457116080.621,35780.762,13395.333,-61589.469,-16986.678,-16137.534,-27644.904,-63026.238,-24766.291,0
2.452,1595457116084.621,36356.766,13311.045,-61639.715,-17087.080,-15649.462,-27688.334,-63079.617,-24842.197,0
2.456,1595457116088.621,38443.793,13255.434,-61630.461,-17131.068,-16241.291,-27734.334,-63121.660,-24944.100,0
2.460,1595457116092.621,38540.238,13323.472,-61560.457,-17036.387,-17061.197,-27651.834,-63072.062,-24905.229,0
2.464,1595457116096.621,37581.930,13446.943,-61544.297,-16963.855,-16817.496,-27630.131,-63027.312,-24802.523,0
2.468,1595457116100.621,35810.062,13419.897,-61584.195,-16990.588,-16106.912,-27561.666,-63026.598,-24757.193,0
2.472,1595457116104.620,36376.367,13338.202,-61654.848,-17100.604,-15651.339,-27682.545,-63096.199,-24853.865,0
2.476,1595457116108.620,38437.758,13310.530,-61630.934,-17134.959,-16249.383,-27758.072,-63118.375,-24955.297,0
2.480,1595457116112.620,38523.746,13383.665,-61563.094,-17044.613,-17038.377,-27619.178,-63068.418,-24911.062,0
2.484,1595457116116.620,37597.555,13511.138,-61547.449,-16969.689,-16786.428,-27611.713,-63019.957,-24811.418,0
2.488,1595457116120.620,35839.590,13503.158,-61579.391,-16983.168,-16117.194,-27628.969,-63016.227,-24764.457,0
2.492,1595457116124.620,36435.039,13438.785,-61638.578,-17080.867,-15656.391,-27666.049,-63076.645,-24832.676,0
2.496,1595457116128.620,38515.785,13389.008,-61628.117,-17119.088,-16257.831,-27717.525,-63115.980,-24935.963,0
2.500,1595457116132.620,38562.367,13448.016,-61553.016,-17034.934,-17067.971,-27607.666,-63064.262,-24894.500,0
2.504,1595457116136.619,37641.723,13581.054,-61533.188,-16951.406,-16771.854,-27603.621,-63007.441,-24788.865,0
2.508,1595457116140.619,35947.863,13557.964,-61574.629,-16977.199,-16076.782,-27631.471,-63008.449,-24757.551,0
2.512,1595457116144.619,36516.824,13498.889,-61625.254,-17076.396,-15628.562,-27747.857,-63064.707,-24844.365,0
2.516,1595457116148.619,36208.797,13730.028,-61561.621,-16968.549,-16100.899,-27611.914,-63001.875,-24764.346,0
2.520,1595457116152.619,38633.270,13521.531,-61542.910,-17016.650,-17097.676,-27595.418,-63062.270,-24884.441,0
2.524,1595457116156.619,38770.953,13613.598,-61546.375,-17036.633,-17071.814,-27699.756,-63064.016,-24924.139,0
2.528,1595457116160.619,36034.051,13625.824,-61558.559,-16973.131,-16066.076,-27554.291,-63004.738,-24741.547,0
2.532,1595457116164.618,36574.113,13566.234,-61619.109,-17068.596,-15633.100,-27675.213,-63064.438,-24828.115,0
2.536,1595457116168.618,36606.656,13613.486,-61619.355,-17068.418,-15662.738,-27694.771,-63065.555,-24845.885,0
2.540,1595457116172.618,38670.484,13574.661,-61536.363,-17028.117,-17082.387,-27665.445,-63056.773,-24911.912,0
2.544,1595457116176.618,37778.984,13690.935,-61524.875,-16961.531,-16785.154,-27551.408,-63010.527,-24803.596,0
2.548,1595457116180.618,36728.473,13664.426,-61626.551,-17065.400,-15654.379,-27738.781,-63066.629,-24854.021,0
2.552,1595457116184.618,38857.344,13619.990,-61620.719,-17100.648,-16244.040,-27687.910,-63106.461,-24933.102,0
2.556,1595457116188.618,38916.352,13670.885,-61534.574,-17015.041,-17066.406,-27563.857,-63048.793,-24886.678,0
2.560,1595457116192.618,37947.047,13781.214,-61515.867,-16948.992,-16780.303,-27574.811,-62996.312,-24791.393,0
2.564,1595457116196.617,36253.902,13755.889,-61559.652,-16972.662,-16103.202,-27641.082,-63004.336,-24764.816,0
2.568,1595457116200.617,36715.512,13706.536,-61609.004,-17057.018,-15667.589,-27701.320,-63053.195,-24827.602,0
2.572,1595457116204.617,38821.312,13670.706,-61598.344,-17093.988,-16250.634,-27723.582,-63086.656,-24915.242,0
2.576,1595457116208.617,38907.770,13710.492,-61531.535,-17015.891,-17090.725,-27590.902,-63047.117,-24875.725,0
2.580,1595457116212.617,37969.043,13817.535,-61509.359,-16951.004,-16794.363,-27597.520,-62992.086,-24779.211,0
2.584,1595457116216.617,36252.539,13786.198,-61557.328,-16968.684,-16108.164,-27649.330,-63001.766,-24748.990,0
2.588,1595457116220.617,36672.125,13728.910,-61613.652,-17055.990,-15665.912,-27663.748,-63059.855,-24808.938,0
2.592,1595457116224.616,38821.289,13702.714,-61596.891,-17089.695,-16228.752,-27678.074,-63085.426,-24893.674,0
2.596,1595457116228.616,38941.051,13740.443,-61528.426,-17019.533,-17062.113,-27669.625,-63043.875,-24876.529,0
2.600,1595457116232.616,38000.645,13843.575,-61514.145,-16952.256,-16801.516,-27603.197,-62997.316,-24778.316,0
2.604,1595457116236.616,36326.410,13822.386,-61551.180,-16958.982,-16102.219,-27567.053,-62995.328,-24731.980,0
2.608,1595457116240.616,36711.352,13771.133,-61609.297,-17052.369,-15660.704,-27694.480,-63050.582,-24812.850,0
2.612,1595457116244.616,38864.004,13732.755,-61605.965,-17100.180,-16238.430,-27799.467,-63090.211,-24921.635,0
2.616,1595457116248.616,39002.875,13765.925,-61533.656,-17015.846,-17068.418,-27598.123,-63044.344,-24873.869,0
2.620,1595457116252.616,38039.203,13868.721,-61507.172,-16940.699,-16808.869,-27536.164,-62987.324,-24758.512,0
2.624,1595457116256.615,36321.270,13841.071,-61539.156,-16968.393,-16113.819,-27594.703,-62988.398,-24729.188,0
2.628,1595457116260.615,36665.488,13794.669,-61592.375,-17055.609,-15680.464,-27719.738,-63042.871,-24809.721,0
2.632,1595457116264.615,38827.281,13751.978,-61598.387,-17106.818,-16242.252,-27731.160,-63085.449,-24921.881,0
2.636,1595457116268.615,38970.020,13789.305,-61528.738,-17020.518,-17076.867,-27623.805,-63043.898,-24892.779,0
2.640,1595457116272.615,38010.324,13895.297,-61499.035,-16941.951,-16803.906,-27557.688,-62986.945,-24793.963,0
2.644,1595457116276.615,36284.660,13861.747,-61543.336,-16971.076,-16131.320,-27602.570,-62993.918,-24769.531,0
2.648,1595457116280.615,36597.203,13815.546,-61592.195,-17063.344,-15677.647,-27752.730,-63039.270,-24844.344,0
2.652,1595457116284.615,38787.004,13779.716,-61589.359,-17097.027,-16229.177,-27709.479,-63078.766,-24921.389,0
2.656,1595457116288.615,38965.863,13826.096,-61500.891,-16999.439,-17045.104,-27570.787,-63021.883,-24874.607,0
2.660,1595457116292.614,38020.004,13925.762,-61484.016,-16939.357,-16793.021,-27557.979,-62972.754,-24788.822,0
2.664,1595457116296.614,36333.340,13881.327,-61539.289,-16973.803,-16101.749,-27579.035,-62982.922,-24756.725,0
2.668,1595457116300.614,36633.012,13831.527,-61593.605,-17058.582,-15666.382,-27687.754,-63039.828,-24827.602,0
2.672,1595457116304.614,38798.961,13816.484,-61575.055,-17088.311,-16235.435,-27734.088,-63069.043,-24907.732,0
2.676,1595457116308.614,39003.680,13854.907,-61504.219,-17013.902,-17051.252,-27580.621,-63026.262,-24867.924,0
2.680,1595457116312.614,38041.953,13955.177,-61478.895,-16946.936,-16794.318,-27610.752,-62970.809,-24773.867,0
2.684,1595457116316.614,36346.258,13915.994,-61533.480,-16972.305,-16079.353,-27613.010,-62980.977,-24736.316,0
2.688,1595457116320.614,36620.156,13868.698,-61595.148,-17054.357,-15656.234,-27632.924,-63043.742,-24794.654,0
2.692,1595457116324.613,38807.723,13836.758,-61584.844,-17091.686,-16223.768,-27654.023,-63078.074,-24879.613,0
2.696,1595457116328.613,39002.875,13878.086,-61499.168,-17008.000,-17053.799,-27595.352,-63024.832,-24851.361,0
2.700,1595457116332.613,38067.098,13994.002,-61469.641,-16935.336,-16782.248,-27578.721,-62965.891,-24750.824,0
2.704,1595457116336.613,36386.090,13962.039,-61525.164,-16959.787,-16104.409,-27598.570,-62978.406,-24712.535,0
2.708,1595457116340.613,36617.656,13907.836,-61583.457,-17043.518,-15661.889,-27638.244,-63035.648,-24770.203,0
2.712,1595457116344.613,38814.520,13883.518,-61569.621,-17086.143,-16220.839,-27735.965,-63071.102,-24869.467,0
2.716,1595457116348.613,39048.785,13919.124,-61494.406,-17005.766,-17055.408,-27627.359,-63019.781,-24836.609,0
2.720,1595457116352.612,38134.043,14012.420,-61477.867,-16933.234,-16798.453,-27545.260,-62970.406,-24730.885,0
2.724,1595457116356.612,36464.031,13986.067,-61518.324,-16947.428,-16115.764,-27553.709,-62974.695,-24679.387,0
2.728,1595457116360.612,36647.852,13925.047,-61583.637,-17049.553,-15685.135,-27727.830,-63037.551,-24764.078,0
2.732,1595457116364.612,38852.113,13880.120,-61589.559,-17088.488,-16222.403,-27667.727,-63082.855,-24840.990,0
2.736,1595457116368.612,39119.465,13922.142,-61509.516,-17010.771,-17066.920,-27621.078,-63035.270,-24808.781,0
2.740,1595457116372.612,38201.656,14040.314,-61478.715,-16928.271,-16843.090,-27590.367,-62976.953,-24704.020,0
2.744,1595457116376.612,36552.609,14013.828,-61514.121,-16947.115,-16121.821,-27571.547,-62968.816,-24652.834,0
2.748,1595457116380.612,36679.836,13963.425,-61576.551,-17037.662,-15703.508,-27625.012,-63033.234,-24710.098,0
2.752,1595457116384.611,38893.062,13920.018,-61575.434,-17086.455,-16215.631,-27672.799,-63070.051,-24801.920,0
2.756,1595457116388.611,39189.895,13947.891,-61510.836,-17017.209,-17059.498,-27606.057,-63030.934,-24776.035,0
2.760,1595457116392.611,38251.320,14051.379,-61481.355,-16943.381,-16846.643,-27525.971,-62977.895,-24666.602,0
2.764,1595457116396.611,36574.492,14017.762,-61522.883,-16971.410,-16152.555,-27592.959,-62983.012,-24637.344,0
2.768,1595457116400.611,36681.246,13975.964,-61579.703,-17050.938,-15685.313,-27712.049,-63033.793,-24698.006,0
2.772,1595457116404.611,38926.770,13950.617,-61575.477,-17089.494,-16197.861,-27715.045,-63072.730,-24770.002,0
2.776,1595457116408.611,39239.848,13976.121,-61504.531,-17012.471,-17065.734,-27542.287,-63033.414,-24728.584,0
2.780,1595457116412.610,38300.898,14066.936,-61485.109,-16948.500,-16839.156,-27511.062,-62980.238,-24631.354,0
2.784,1595457116416.610,36624.852,14028.178,-61538.238,-16981.693,-16160.266,-27584.510,-62993.340,-24609.180,0
2.788,1595457116420.610,36665.242,13992.616,-61578.449,-17048.346,-15710.594,-27652.348,-63032.543,-24654.375,0
2.792,1595457116424.610,38885.352,13968.968,-61575.098,-17094.391,-16218.447,-27717.660,-63071.145,-24743.268,0
2.796,1595457116428.610,39229.301,14000.327,-61498.543,-17016.650,-17063.791,-27562.002,-63025.301,-24699.303,0
2.800,1595457116432.610,38293.812,14085.487,-61483.770,-16954.445,-16834.977,-27507.420,-62976.934,-24601.736,0
2.804,1595457116436.610,36616.582,14049.233,-61539.000,-16989.984,-16160.400,-27604.270,-62995.191,-24583.432,0
2.808,1595457116440.610,36632.742,14014.901,-61582.562,-17066.695,-15703.173,-27674.723,-63040.703,-24635.488,0
2.812,1595457116444.609,38875.359,13991.744,-61585.223,-17106.303,-16197.929,-27703.443,-63083.973,-24714.658,0
2.816,1595457116448.609,39237.457,14011.995,-61512.492,-17035.650,-17090.635,-27605.096,-63045.910,-24689.223,0
2.820,1595457116452.609,38294.930,14097.334,-61479.656,-16970.137,-16875.186,-27535.693,-62980.820,-24576.748,0
2.824,1595457116456.609,36647.004,14074.647,-61516.715,-16992.957,-16156.623,-27585.896,-62973.422,-24531.217,0
2.828,1595457116460.609,36626.328,14030.815,-61576.820,-17077.537,-15700.110,-27656.953,-63029.211,-24588.393,0
2.832,1595457116464.609,38861.703,13999.545,-61579.074,-17125.594,-16221.778,-27710.127,-63075.840,-24682.182,0
2.836,1595457116468.609,39238.219,14021.853,-61517.207,-17059.900,-17123.111,-27593.361,-63043.094,-24658.266,0
2.840,1595457116472.608,38292.383,14122.167,-61476.125,-16977.938,-16927.355,-27521.031,-62974.652,-24544.293,0
2.844,1595457116476.608,36653.441,14094.205,-61504.555,-16996.824,-16179.310,-27582.453,-62964.883,-24503.277,0
2.848,1595457116480.608,36608.266,14051.401,-61574.113,-17075.525,-15712.248,-27629.816,-63030.039,-24553.123,0
2.852,1595457116484.608,38851.934,14007.860,-61591.234,-17131.672,-16221.778,-27697.609,-63088.758,-24647.178,0
2.856,1595457116488.608,39248.121,14041.790,-61500.398,-17058.135,-17100.201,-27707.221,-63035.941,-24629.879,0
2.860,1595457116492.608,38329.574,14131.019,-61479.297,-16974.316,-16902.836,-27473.824,-62982.742,-24503.076,0
2.864,1595457116496.608,36731.918,14085.778,-61535.512,-17009.922,-16194.755,-27531.828,-62993.828,-24481.641,0
2.868,1595457116500.608,36642.891,14063.024,-61570.023,-17075.123,-15707.911,-27691.441,-63025.168,-24543.064,0
2.872,1595457116504.607,38882.398,14044.450,-61568.996,-17110.037,-16179.868,-27727.674,-63063.055,-24625.520,0
2.876,1595457116508.607,39294.926,14068.031,-61502.855,-17036.074,-17074.787,-27532.006,-63026.062,-24593.512,0
2.880,1595457116512.607,38350.293,14162.199,-61475.969,-16966.359,-16907.754,-27514.617,-62973.535,-24506.451,0
2.884,1595457116516.607,36727.379,14121.050,-61532.695,-17004.201,-16203.360,-27594.904,-62986.676,-24499.367,0
2.888,1595457116520.607,36624.562,14073.686,-61584.953,-17078.408,-15697.920,-27637.193,-63028.117,-24542.215,0
2.892,1595457116524.607,38859.266,14051.245,-61581.199,-17123.805,-16169.721,-27711.156,-63068.863,-24628.693,0
2.896,1595457116528.607,39277.488,14070.937,-61510.566,-17063.434,-17059.543,-27630.488,-63032.566,-24614.479,0
2.900,1595457116532.606,38358.633,14176.996,-61471.676,-16973.512,-16902.746,-27551.385,-62964.527,-24498.695,0
2.904,1595457116536.606,36773.312,14143.043,-61522.840,-16995.439,-16203.919,-27573.424,-62968.641,-24473.326,0
2.908,1595457116540.606,36618.906,14089.734,-61574.250,-17073.715,-15715.243,-27684.893,-63016.293,-24544.629,0
2.912,1595457116544.606,38856.898,14073.642,-61564.258,-17109.545,-16163.082,-27689.363,-63051.496,-24628.850,0
2.916,1595457116548.606,39312.047,14091.970,-61502.902,-17042.533,-17035.180,-27587.684,-63022.820,-24620.625,0
2.920,1595457116552.606,38396.676,14187.434,-61467.539,-16954.133,-16886.520,-27523.938,-62964.078,-24523.037,0
2.924,1595457116556.606,36797.473,14161.461,-61509.516,-16980.418,-16193.950,-27591.238,-62967.367,-24504.262,0
2.928,1595457116560.606,36592.398,14114.366,-61565.555,-17062.674,-15720.384,-27698.080,-63019.488,-24574.111,0
2.932,1595457116564.605,38872.609,14083.007,-61583.211,-17117.301,-16156.667,-27660.887,-63074.586,-24661.014,0
2.936,1595457116568.605,39343.293,14102.252,-61508.422,-17051.027,-17047.854,-27623.738,-63033.348,-24660.902,0
2.940,1595457116572.605,38401.168,14203.527,-61468.324,-16961.979,-16891.793,-27560.438,-62968.348,-24561.549,0
2.944,1595457116576.605,36832.723,14179.074,-61510.008,-16979.502,-16181.902,-27594.748,-62969.242,-24530.592,0
2.948,1595457116580.605,36602.500,14135.802,-61564.367,-17058.426,-15695.842,-27691.598,-63017.902,-24592.863,0
2.952,1595457116584.605,38838.656,14109.605,-61571.434,-17110.818,-16129.935,-27784.535,-63063.387,-24693.133,0
2.956,1595457116588.605,39344.008,14121.385,-61507.641,-17051.139,-17031.492,-27594.592,-63030.867,-24671.988,0
2.960,1595457116592.604,38414.355,14219.464,-61473.574,-16977.178,-16919.465,-27555.564,-62969.824,-24579.340,0
2.964,1595457116596.604,36842.156,14203.326,-61516.602,-16979.010,-16223.230,-27553.508,-62969.734,-24536.492,0
2.968,1595457116600.604,36583.566,14152.163,-61572.570,-17053.666,-15703.575,-27633.281,-63020.695,-24592.371,0
2.972,1595457116604.604,38848.539,14125.296,-61566.781,-17107.779,-16116.725,-27714.039,-63063.277,-24688.730,0
2.976,1595457116608.604,39366.227,14155.091,-61492.016,-17043.049,-17025.078,-27644.301,-63021.301,-24680.818,0
2.980,1595457116612.604,38431.164,14255.115,-61465.238,-16957.889,-16914.793,-27549.686,-62971.145,-24578.379,0
2.984,1595457116616.604,36869.828,14224.001,-61514.637,-16987.928,-16203.293,-27627.447,-62976.754,-24562.689,0
2.988,1595457116620.604,36602.188,14173.822,-61571.520,-17068.932,-15669.913,-27699.576,-63028.676,-24619.775,0
2.992,1595457116624.604,38882.355,14135.444,-61585.938,-17114.641,-16096.184,-27650.291,-63083.012,-24699.771,0
2.996,1595457116628.604,39437.508,14157.907,-61511.773,-17038.242,-16999.730,-27571.211,-63042.555,-24676.213,0
3.000,1595457116632.603,38501.727,14247.046,-61478.246,-16969.242,-16919.822,-27577.135,-62989.402,-24596.082,0
3.004,1595457116636.603,36964.621,14227.287,-61516.758,-16984.219,-16196.096,-27597.027,-62981.648,-24556.363,0
3.008,1595457116640.603,36648.074,14169.575,-61578.293,-17066.137,-15687.058,-27704.182,-63034.285,-24623.463,0
3.012,1595457116644.603,38922.188,14142.373,-61582.766,-17119.871,-16096.340,-27735.451,-63080.957,-24719.195,0
3.016,1595457116648.603,39503.602,14176.034,-61492.172,-17038.645,-16992.914,-27568.148,-63028.387,-24684.617,0
3.020,1595457116652.603,38550.699,14269.309,-61471.543,-16963.967,-16927.914,-27553.598,-62979.949,-24593.758,0
3.024,1595457116656.603,36990.371,14234.753,-61521.410,-16996.176,-16216.190,-27625.996,-62980.754,-24567.561,0
3.028,1595457116660.602,36637.145,14176.795,-61568.973,-17068.238,-15665.733,-27655.924,-63024.941,-24609.381,0
3.032,1595457116664.602,38946.168,14162.914,-61572.816,-17113.658,-16058.387,-27716.430,-63072.262,-24701.180,0
3.036,1595457116668.602,39570.434,14176.013,-61509.898,-17055.945,-16987.684,-27588.936,-63042.848,-24692.529,0
3.040,1595457116672.602,38597.797,14270.762,-61464.793,-16976.910,-16917.162,-27549.373,-62975.547,-24598.451,0
3.044,1595457116676.602,37040.551,14259.585,-61498.273,-16986.230,-16209.730,-27594.658,-62967.434,-24553.971,0
3.048,1595457116680.602,36655.340,14210.434,-61554.535,-17063.723,-15678.251,-27700.248,-63014.617,-24607.594,0
3.052,1595457116684.602,38967.605,14162.021,-61574.516,-17131.807,-16070.010,-27751.098,-63076.309,-24708.131,0
3.056,1595457116688.602,39605.055,14173.486,-61506.434,-17074.877,-17006.592,-27668.688,-63044.344,-24701.492,0
3.060,1595457116692.601,38628.305,14282.943,-61462.223,-16975.389,-16934.754,-27533.549,-62972.977,-24583.006,0
3.064,1595457116696.601,37062.188,14262.559,-61505.582,-16991.416,-16208.099,-27556.816,-62974.430,-24549.121,0
3.068,1595457116700.601,36657.219,14216.737,-61557.598,-17065.109,-15649.238,-27666.162,-63014.840,-24606.408,0
3.072,1595457116704.601,38964.008,14187.054,-61579.121,-17123.738,-16044.887,-27687.998,-63074.855,-24696.799,0
3.076,1595457116708.601,39614.598,14205.024,-61506.008,-17065.980,-16974.809,-27624.186,-63041.664,-24693.045,0
3.080,1595457116712.601,38674.328,14299.595,-61465.797,-16982.967,-16910.279,-27553.262,-62977.738,-24597.154,0
3.084,1595457116716.601,37133.914,14278.920,-61509.449,-17001.205,-16195.246,-27611.377,-62977.895,-24561.438,0
3.088,1595457116720.600,36690.477,14229.746,-61564.348,-17066.965,-15668.215,-27684.938,-63025.277,-24603.906,0
3.092,1595457116724.600,38985.754,14207.148,-61570.312,-17122.598,-16029.218,-27767.750,-63070.496,-24694.988,0
3.096,1595457116728.600,39665.582,14218.413,-61507.016,-17064.395,-16950.779,-27618.172,-63043.898,-24684.953,0
3.100,1595457116732.600,38703.898,14310.838,-61471.879,-16984.867,-16914.951,-27508.023,-62984.664,-24587.611,0
3.104,1595457116736.600,37152.578,14297.382,-61502.344,-16999.977,-16193.302,-27580.465,-62971.789,-24552.094,0
3.108,1595457116740.600,36670.070,14239.111,-61558.000,-17077.068,-15633.212,-27626.777,-63014.504,-24594.875,0
3.112,1595457116744.600,38976.188,14201.247,-61578.270,-17139.631,-15998.618,-27726.801,-63070.898,-24700.934,0
3.116,1595457116748.600,39712.855,14204.063,-61510.031,-17083.035,-16899.662,-27596.133,-63038.398,-24692.328,0
3.120,1595457116752.599,38764.652,14294.856,-61466.734,-16997.295,-16870.158,-27561.062,-62977.000,-24596.127,0
3.124,1595457116756.599,37203.160,14288.978,-61503.238,-17002.367,-16185.031,-27632.768,-62973.602,-24561.102,0
3.128,1595457116760.599,36676.016,14239.491,-61556.949,-17071.949,-15634.195,-27651.387,-63018.016,-24594.764,0
3.132,1595457116764.599,38998.117,14203.885,-61576.059,-17140.838,-15981.072,-27700.539,-63072.219,-24698.006,0
3.136,1595457116768.599,39733.332,14216.268,-61502.453,-17086.902,-16896.086,-27594.502,-63037.082,-24700.062,0
3.140,1595457116772.599,38748.289,14310.436,-61463.629,-16999.752,-16896.734,-27555.096,-62977.422,-24605.760,0
3.144,1595457116776.599,37216.234,14298.724,-61506.543,-17006.570,-16183.579,-27552.078,-62972.059,-24552.475,0
3.148,1595457116780.598,36644.254,14248.588,-61558.961,-17080.152,-15631.223,-27656.684,-63012.605,-24595.992,0
3.152,1595457116784.598,38953.992,14228.964,-61562.289,-17129.773,-15946.852,-27695.375,-63055.008,-24680.035,0
3.156,1595457116788.598,39700.094,14233.725,-61498.766,-17086.164,-16898.947,-27628.699,-63027.648,-24684.885,0
3.160,1595457116792.598,38739.438,14329.278,-61461.148,-16996.914,-16911.373,-27614.641,-62968.617,-24589.846,0
3.164,1595457116796.598,37220.883,14325.210,-61493.938,-16999.574,-16202.466,-27542.020,-62961.129,-24523.730,0
3.168,1595457116800.598,36641.727,14265.375,-61553.371,-17087.797,-15618.214,-27678.947,-63007.062,-24579.988,0
3.172,1595457116804.598,38956.898,14228.494,-61574.070,-17149.465,-15942.113,-27678.186,-63066.340,-24666.602,0
3.176,1595457116808.598,39715.828,14237.703,-61503.082,-17102.504,-16878.650,-27670.699,-63036.121,-24684.818,0
3.180,1595457116812.597,38732.734,14335.716,-61460.879,-17011.645,-16898.477,-27550.402,-62971.211,-24580.279,0
3.184,1595457116816.597,37214.043,14322.282,-61496.574,-17012.381,-16180.271,-27549.039,-62963.207,-24519.863,0
3.188,1595457116820.597,36604.734,14272.058,-61557.215,-17089.562,-15608.110,-27667.793,-63012.582,-24574.982,0
3.192,1595457116824.597,38907.055,14231.512,-61581.848,-17155.656,-15964.420,-27659.881,-63077.781,-24668.346,0
3.196,1595457116828.597,39684.672,14243.560,-61505.875,-17101.230,-16884.842,-27620.564,-63038.309,-24678.783,0
3.200,1595457116832.597,38717.645,14344.053,-61454.285,-17009.074,-16891.883,-27566.182,-62968.102,-24585.801,0
3.204,1595457116836.597,37247.973,14315.621,-61506.098,-17032.141,-16185.702,-27602.615,-62974.227,-24548.584,0
3.208,1595457116840.596,36612.469,14260.122,-61559.562,-17094.523,-15639.560,-27622.799,-63015.867,-24581.822,0
3.212,1595457116844.596,38888.926,14232.942,-61572.727,-17155.836,-15947.634,-27682.836,-63065.602,-24680.885,0
3.216,1595457116848.596,39646.359,14248.052,-61496.711,-17104.516,-16889.156,-27651.096,-63030.219,-24696.576,0
3.220,1595457116852.596,38685.258,14348.277,-61455.605,-17013.119,-16899.393,-27552.234,-62970.742,-24595.859,0
3.224,1595457116856.596,37245.066,14316.984,-61502.141,-17035.225,-16192.318,-27546.557,-62975.480,-24553.727,0
3.228,1595457116860.596,36572.348,14262.089,-61560.012,-17103.912,-15637.839,-27653.533,-63018.684,-24605.627,0
3.232,1595457116864.596,38845.117,14239.335,-61578.539,-17162.271,-15941.487,-27705.209,-63070.207,-24699.035,0
3.236,1595457116868.596,39663.840,14241.257,-61501.895,-17105.812,-16883.166,-27625.928,-63034.152,-24700.688,0
3.240,1595457116872.595,38700.211,14322.729,-61461.328,-17015.064,-16917.432,-27546.311,-62973.379,-24604.219,0
3.244,1595457116876.595,37254.723,14284.373,-61514.234,-17041.170,-16192.520,-27629.572,-62979.234,-24573.574,0
3.248,1595457116880.595,36561.172,14202.924,-61570.516,-17107.332,-15638.800,-27622.910,-63027.582,-24602.586,0
3.252,1595457116884.595,38809.734,14161.685,-61586.297,-17169.000,-15957.200,-27704.115,-63083.727,-24701.381,0
3.256,1595457116888.595,39655.996,14156.655,-61527.109,-17126.420,-16912.424,-27637.596,-63061.891,-24714.010,0
3.260,1595457116892.595,38717.891,14231.378,-61477.109,-17040.008,-16937.570,-27553.910,-62990.590,-24618.434,0
3.264,1595457116896.595,37262.906,14204.287,-61510.320,-17036.119,-16218.090,-27578.051,-62982.676,-24566.221,0
3.268,1595457116900.594,36489.242,14127.174,-61562.914,-17109.344,-15658.000,-27621.973,-63023.379,-24600.150,0
3.272,1595457116904.594,38711.566,14082.627,-61581.648,-17169.156,-15924.187,-27684.713,-63073.984,-24694.318,0
3.276,1595457116908.594,39570.766,14067.227,-61521.184,-17127.828,-16868.168,-27681.494,-63054.223,-24718.213,0
3.280,1595457116912.594,38635.547,14133.655,-61478.336,-17044.725,-16911.486,-27659.701,-62994.410,-24633.812,0
3.284,1595457116916.594,37230.359,14122.838,-61515.129,-17038.801,-16191.312,-27516.695,-62986.855,-24556.564,0
3.288,1595457116920.594,36420.559,14073.954,-61559.406,-17108.918,-15643.181,-27647.877,-63021.324,-24599.123,0
3.292,1595457116924.594,38634.879,14036.783,-61580.574,-17168.508,-15928.590,-27709.859,-63077.582,-24687.457,0
3.296,1595457116928.594,39537.395,14028.268,-61519.262,-17133.908,-16856.902,-27641.307,-63056.215,-24699.660,0
3.300,1595457116932.594,38646.566,14131.443,-61477.711,-17041.662,-16920.449,-27556.660,-62998.926,-24600.553,0
3.304,1595457116936.593,37213.285,14137.992,-61505.516,-17040.746,-16214.021,-27571.166,-62988.332,-24545.143,0
3.308,1595457116940.593,36356.070,14096.597,-61544.453,-17103.666,-15626.842,-27611.668,-63014.258,-24568.098,0
3.312,1595457116944.593,38573.590,14067.606,-61578.785,-17186.322,-15904.518,-27715.066,-63081.047,-24681.131,0
3.316,1595457116948.593,39484.199,14080.101,-61515.129,-17140.547,-16854.959,-27636.791,-63058.695,-24692.307,0
3.320,1595457116952.593,38585.457,14210.411,-61453.215,-17032.520,-16904.199,-27543.607,-62980.219,-24573.061,0
3.324,1595457116956.593,37182.684,14223.398,-61493.109,-17044.881,-16211.809,-27589.607,-62976.598,-24528.156,0
3.328,1595457116960.593,36319.371,14175.833,-61549.594,-17116.652,-15655.407,-27643.205,-63020.273,-24571.383,0
3.332,1595457116964.593,38545.090,14154.890,-61569.441,-17186.232,-15915.447,-27682.836,-63074.586,-24662.936,0
3.336,1595457116968.592,39500.000,14166.490,-61509.027,-17150.537,-16859.361,-27634.287,-63056.391,-24678.807,0
3.340,1595457116972.592,38609.777,14281.893,-61450.465,-17047.676,-16933.256,-27589.115,-62981.535,-24576.793,0
3.344,1595457116976.592,37196.184,14290.654,-61482.984,-17050.223,-16194.353,-27598.369,-62966.316,-24519.260,0
3.348,1595457116980.592,36319.570,14245.392,-61539.156,-17115.535,-15630.687,-27640.346,-63007.219,-24545.857,0
3.352,1595457116984.592,38570.148,14222.660,-61570.359,-17179.236,-15897.253,-27666.273,-63070.070,-24636.762,0
3.356,1595457116988.592,39529.996,14233.657,-61499.281,-17133.572,-16832.941,-27602.279,-63044.055,-24652.408,0
3.360,1595457116992.592,38633.895,14345.327,-61444.742,-17036.900,-16903.170,-27556.705,-62975.145,-24564.029,0
3.364,1595457116996.591,37261.496,14353.530,-61484.863,-17045.283,-16203.606,-27615.266,-62972.910,-24526.031,0
3.368,1595457117000.591,36345.477,14294.007,-61543.984,-17121.682,-15643.918,-27666.898,-63014.305,-24566.311,0
3.372,1595457117004.591,38552.266,14272.751,-61566.625,-17182.590,-15888.871,-27714.934,-63070.629,-24654.777,0
3.376,1595457117008.591,39552.238,14287.391,-61500.152,-17128.164,-16825.699,-27600.625,-63046.871,-24654.375,0
3.380,1595457117012.591,38684.633,14379.413,-61454.422,-17046.871,-16906.949,-27547.250,-62985.516,-24571.227,0
3.384,1595457117016.591,37327.391,14388.488,-61485.734,-17046.758,-16193.973,-27600.381,-62974.539,-24527.910,0
3.388,1595457117020.591,36370.020,14341.259,-61531.734,-17101.207,-15644.991,-27595.508,-63007.957,-24546.641,0
3.392,1595457117024.591,38544.129,14315.309,-61555.359,-17163.346,-15892.269,-27664.105,-63064.684,-24642.752,0
3.396,1595457117028.590,39554.227,14317.924,-61495.926,-17128.834,-16810.812,-27624.588,-63043.184,-24663.494,0
3.400,1595457117032.590,38695.652,14409.342,-61451.203,-17040.768,-16914.861,-27578.006,-62980.441,-24571.764,0
3.404,1595457117036.590,37362.594,14426.195,-61474.180,-17035.582,-16204.812,-27592.334,-62960.234,-24517.113,0
3.408,1595457117040.590,36377.328,14372.641,-61527.668,-17103.555,-15649.350,-27632.164,-63000.402,-24554.977,0
3.412,1595457117044.590,38556.043,14341.616,-61556.613,-17172.219,-15884.088,-27663.547,-63059.031,-24647.580,0
3.416,1595457117048.590,39596.672,14349.864,-61489.871,-17129.393,-16803.660,-27619.871,-63030.910,-24669.172,0
3.420,1595457117052.590,38740.445,14451.833,-61441.656,-17029.615,-16907.262,-27509.029,-62967.879,-24573.262,0
3.424,1595457117056.589,37407.812,14458.181,-61478.023,-17036.053,-16236.754,-27543.049,-62962.066,-24527.641,0
3.428,1595457117060.589,36365.438,14396.378,-61540.496,-17113.791,-15707.084,-27672.822,-63009.633,-24578.805,0
3.432,1595457117064.589,38553.605,14362.068,-61566.938,-17181.338,-15880.355,-27702.527,-63063.188,-24669.643,0
3.436,1595457117068.589,39616.969,14352.323,-61506.434,-17145.262,-16776.660,-27565.020,-63041.750,-24681.645,0
3.440,1595457117072.589,38759.555,14452.861,-61453.145,-17051.162,-16901.182,-27541.527,-62976.129,-24590.896,0
3.444,1595457117076.589,37408.793,14464.395,-61489.355,-17056.795,-16234.697,-27637.551,-62969.824,-24554.955,0
3.448,1595457117080.589,36372.746,14399.127,-61543.426,-17122.285,-15672.886,-27585.203,-63009.566,-24568.500,0
3.452,1595457117084.589,38552.375,14370.070,-61561.867,-17190.301,-15865.715,-27688.916,-63059.031,-24660.857,0
3.456,1595457117088.588,39647.500,14375.882,-61497.918,-17144.859,-16755.359,-27609.947,-63034.531,-24675.162,0
3.460,1595457117092.588,38785.258,14470.966,-61450.328,-17049.486,-16898.834,-27534.242,-62975.301,-24584.012,0
3.464,1595457117096.588,37463.668,14479.393,-61479.453,-17057.062,-16213.731,-27589.920,-62963.410,-24540.695,0
3.468,1595457117100.588,36390.785,14420.115,-61532.113,-17117.189,-15665.645,-27593.361,-62999.797,-24561.684,0
3.472,1595457117104.588,38545.559,14388.398,-61559.965,-17196.359,-15841.485,-27689.787,-63057.062,-24668.145,0
3.476,1595457117108.588,39664.867,14384.956,-61512.066,-17166.363,-16744.139,-27657.242,-63046.980,-24703.482,0
3.480,1595457117112.588,38840.582,14471.056,-61462.891,-17068.016,-16894.297,-27548.770,-62984.844,-24607.549,0
3.484,1595457117116.587,37531.102,14487.148,-61488.688,-17062.182,-16213.374,-27579.324,-62965.422,-24543.332,0
3.488,1595457117120.587,36406.609,14427.425,-61538.195,-17131.293,-15662.537,-27682.926,-62998.770,-24581.018,0
3.492,1595457117124.587,38552.645,14401.765,-61566.672,-17187.754,-15865.961,-27689.676,-63060.973,-24658.645,0
3.496,1595457117128.587,39701.816,14403.329,-61500.598,-17155.477,-16746.910,-27647.162,-63035.023,-24674.246,0
3.500,1595457117132.587,38869.816,14490.814,-61443.938,-17057.600,-16872.795,-27546.938,-62964.480,-24573.686,0
3.504,1595457117136.587,37541.430,14493.385,-61480.816,-17051.252,-16217.464,-27496.623,-62955.520,-24516.264,0
3.508,1595457117140.587,36382.961,14432.097,-61531.445,-17124.520,-15674.831,-27626.264,-62988.266,-24566.869,0
3.512,1595457117144.587,38539.457,14405.542,-61551.359,-17187.598,-15839.519,-27680.645,-63038.535,-24657.639,0
3.516,1595457117148.586,39721.910,14397.942,-61500.398,-17157.221,-16758.465,-27641.799,-63032.410,-24685.064,0
3.520,1595457117152.586,38908.707,14480.331,-61448.699,-17062.092,-16906.145,-27478.652,-62962.941,-24582.738,0
3.524,1595457117156.586,37584.859,14484.757,-61477.039,-17065.512,-16249.628,-27555.387,-62949.281,-24539.666,0
3.528,1595457117160.586,36392.863,14429.034,-61519.957,-17127.783,-15680.105,-27604.807,-62980.219,-24570.824,0
3.532,1595457117164.586,38527.254,14415.266,-61538.730,-17189.766,-15834.020,-27649.711,-63034.598,-24662.088,0
3.536,1595457117168.586,39740.664,14410.951,-61484.082,-17164.598,-16731.443,-27627.672,-63023.199,-24693.938,0
3.540,1595457117172.586,38930.434,14508.808,-61428.984,-17072.172,-16899.996,-27587.305,-62957.484,-24608.086,0
3.544,1595457117176.585,37609.715,14522.509,-61455.473,-17059.320,-16252.824,-27519.287,-62940.945,-24533.520,0
3.548,1595457117180.585,36361.816,14459.700,-61509.113,-17127.672,-15699.351,-27617.635,-62975.098,-24568.992,0
3.552,1595457117184.585,38490.352,14424.116,-61542.754,-17202.371,-15826.286,-27673.984,-63038.020,-24665.641,0
3.556,1595457117188.585,39724.906,14412.427,-61489.715,-17176.689,-16703.771,-27641.730,-63026.711,-24701.516,0
3.560,1595457117192.585,38947.445,14495.083,-61436.359,-17085.428,-16864.859,-27535.471,-62962.516,-24604.486,0
3.564,1595457117196.585,37638.301,14525.728,-61455.023,-17067.902,-16221.912,-27520.965,-62940.117,-24532.580,0
3.568,1595457117200.585,36360.922,14467.971,-61503.504,-17129.057,-15680.218,-27598.525,-62970.828,-24561.326,0
3.572,1595457117204.585,38492.789,14429.525,-61542.129,-17207.623,-15804.337,-27690.211,-63035.293,-24662.713,0
3.576,1595457117208.584,39783.152,14422.083,-61482.852,-17181.227,-16674.959,-27614.908,-63018.574,-24689.289,0
3.580,1595457117212.584,38997.535,14516.229,-61423.820,-17084.623,-16874.984,-27553.531,-62951.742,-24596.395,0
3.584,1595457117216.584,37673.352,14531.003,-61452.723,-17073.246,-16234.652,-27527.312,-62936.520,-24530.928,0
3.588,1595457117220.584,36347.734,14475.213,-61504.734,-17134.355,-15681.961,-27603.643,-62968.660,-24557.906,0
3.592,1595457117224.584,38475.062,14441.126,-61541.547,-17210.730,-15791.127,-27659.389,-63035.156,-24658.623,0
3.596,1595457117228.584,39800.098,14431.471,-61486.359,-17185.988,-16669.752,-27646.514,-63021.008,-24696.576,0
3.600,1595457117232.584,39030.035,14508.025,-61434.953,-17088.803,-16863.295,-27517.477,-62954.492,-24594.271,0
3.604,1595457117236.583,37711.391,14525.974,-61464.969,-17080.822,-16236.329,-27547.295,-62940.988,-24535.174,0
3.608,1595457117240.583,36337.117,14472.709,-61509.898,-17140.479,-15703.598,-27593.965,-62972.461,-24552.496,0
3.612,1595457117244.583,38434.070,14446.290,-61539.805,-17210.977,-15780.331,-27683.416,-63026.062,-24648.408,0
3.616,1595457117248.583,39812.121,14428.677,-61497.582,-17191.664,-16632.379,-27673.314,-63025.590,-24687.076,0
3.620,1595457117252.583,39069.574,14521.548,-61438.148,-17091.395,-16855.764,-27570.430,-62955.051,-24580.771,0
3.624,1595457117256.583,37731.891,14552.617,-61451.492,-17064.975,-16211.026,-27552.457,-62924.293,-24503.055,0
3.628,1595457117260.583,36322.141,14485.517,-61508.422,-17131.494,-15668.416,-27619.715,-62966.270,-24538.861,0
3.632,1595457117264.583,38434.406,14456.750,-61536.250,-17198.975,-15744.636,-27610.885,-63019.242,-24625.855,0
3.636,1595457117268.583,39844.754,14445.328,-61492.844,-17185.094,-16599.254,-27595.418,-63019.289,-24673.666,0
3.640,1595457117272.583,39112.266,14523.180,-61447.312,-17093.070,-16854.154,-27547.764,-62967.590,-24595.881,0
3.644,1595457117276.582,37785.867,14549.130,-61468.770,-17072.352,-16252.646,-27574.049,-62951.203,-24535.174,0
3.648,1595457117280.582,36332.156,14489.451,-61513.250,-17134.086,-15707.420,-27682.857,-62977.535,-24568.926,0
3.652,1595457117284.582,38443.680,14471.056,-61538.508,-17194.525,-15750.559,-27672.018,-63029.012,-24639.244,0
3.656,1595457117288.582,39906.199,14460.751,-61485.871,-17170.922,-16565.906,-27617.859,-63020.184,-24674.291,0
3.660,1595457117292.582,39166.492,14535.205,-61439.578,-17082.768,-16832.182,-27546.512,-62967.188,-24593.758,0
3.664,1595457117296.582,37834.551,14553.265,-61467.629,-17070.541,-16246.253,-27559.477,-62953.305,-24530.055,0
3.668,1595457117300.582,36353.547,14491.798,-61514.434,-17132.455,-15703.978,-27618.463,-62987.305,-24556.363,0
3.672,1595457117304.581,38422.848,14471.726,-61538.219,-17200.203,-15741.193,-27711.223,-63038.289,-24649.213,0
3.676,1595457117308.581,39910.469,14452.392,-61494.855,-17190.078,-16574.109,-27600.447,-63036.633,-24680.236,0
3.680,1595457117312.581,39179.051,14527.203,-61446.148,-17101.186,-16846.598,-27562.762,-62982.406,-24600.262,0
3.684,1595457117316.581,37855.562,14558.450,-61458.914,-17075.279,-16245.694,-27551.162,-62952.883,-24530.256,0
3.688,1595457117320.581,36339.801,14514.552,-61495.750,-17118.039,-15673.043,-27589.361,-62968.281,-24535.934,0
3.692,1595457117324.581,38403.871,14476.576,-61538.375,-17197.342,-15718.774,-27680.086,-63039.562,-24641.188,0
3.696,1595457117328.581,39914.715,14463.009,-61489.312,-17183.217,-16553.434,-27651.252,-63037.125,-24689.289,0
3.700,1595457117332.581,39224.828,14547.230,-61442.129,-17094.814,-16823.844,-27552.793,-62981.625,-24602.922,0
3.704,1595457117336.580,37881.152,14575.281,-61464.277,-17086.521,-16237.469,-27595.105,-62962.961,-24548.070,0
3.708,1595457117340.580,36327.262,14513.322,-61500.508,-17125.035,-15689.784,-27612.852,-62982.094,-24548.986,0
3.712,1595457117344.580,38397.523,14468.440,-61540.230,-17204.607,-15731.381,-27680.443,-63047.562,-24641.100,0
3.716,1595457117348.580,39949.672,14452.168,-61487.164,-17184.623,-16543.889,-27636.367,-63038.867,-24675.744,0
3.720,1595457117352.580,39264.480,14537.440,-61435.555,-17090.188,-16822.504,-27563.053,-62981.066,-24595.814,0
3.724,1595457117356.580,37923.621,14553.846,-61463.004,-17090.658,-16238.899,-27581.180,-62971.031,-24549.145,0
3.728,1595457117360.580,36321.516,14491.440,-61504.398,-17146.738,-15710.169,-27627.672,-62995.035,-24567.383,0
3.732,1595457117364.579,38360.910,14468.149,-61535.422,-17215.447,-15711.041,-27666.496,-63046.578,-24653.438,0
3.736,1595457117368.579,39951.707,14454.046,-61487.746,-17206.260,-16516.330,-27637.707,-63040.770,-24702.768,0
3.740,1595457117372.579,39271.969,14540.793,-61436.809,-17115.021,-16814.748,-27579.727,-62981.516,-24619.463,0
3.744,1595457117376.579,37916.961,14575.639,-61458.555,-17100.670,-16253.115,-27586.924,-62963.609,-24560.654,0
3.748,1595457117380.579,36291.723,14515.312,-61503.035,-17156.326,-15709.834,-27605.008,-62992.020,-24575.520,0
3.752,1595457117384.579,38356.062,14481.337,-61545.727,-17242.717,-15697.875,-27715.514,-63060.035,-24683.098,0
3.756,1595457117388.579,39992.812,14465.468,-61496.867,-17219.561,-16520.531,-27641.842,-63052.055,-24716.133,0
3.760,1595457117392.579,39323.043,14540.949,-61438.594,-17129.170,-16812.824,-27555.699,-62984.801,-24634.260,0
3.764,1595457117396.578,37974.742,14579.752,-61451.469,-17105.857,-16221.621,-27610.551,-62955.719,-24564.186,0
3.768,1595457117400.578,36318.477,14519.938,-61498.027,-17147.520,-15694.188,-27609.879,-62981.535,-24564.164,0
3.772,1595457117404.578,38346.516,14494.524,-61529.699,-17219.582,-15702.927,-27646.984,-63042.199,-24649.258,0
3.776,1595457117408.578,39995.383,14475.816,-61489.871,-17219.582,-16512.998,-27693.027,-63045.082,-24715.127,0
3.780,1595457117412.578,39354.961,14542.894,-61448.051,-17139.898,-16824.516,-27628.275,-62995.551,-24647.648,0
3.784,1595457117416.578,38005.297,14577.293,-61459.941,-17107.465,-16260.871,-27526.172,-62965.219,-24555.090,0
3.788,1595457117420.578,36307.480,14525.951,-61497.293,-17159.455,-15707.554,-27596.938,-62980.352,-24572.658,0
3.792,1595457117424.577,38322.801,14500.560,-61534.527,-17237.463,-15688.466,-27670.564,-63041.508,-24676.168,0
3.796,1595457117428.577,40006.113,14480.622,-61496.977,-17227.248,-16496.258,-27621.234,-63044.434,-24722.549,0
3.800,1595457117432.577,39359.164,14554.114,-61444.340,-17142.045,-16818.883,-27579.861,-62986.207,-24647.379,0
3.804,1595457117436.577,37986.320,14579.976,-61467.340,-17134.422,-16265.744,-27636.836,-62970.672,-24597.445,0
3.808,1595457117440.577,36256.070,14523.582,-61511.125,-17189.832,-15719.378,-27716.117,-62997.004,-24617.830,0
3.812,1595457117444.577,38283.129,14508.830,-61542.441,-17246.225,-15695.842,-27618.887,-63051.184,-24671.184,0
3.816,1595457117448.577,40010.312,14493.988,-61493.559,-17236.949,-16485.193,-27626.600,-63039.582,-24721.811,0
3.820,1595457117452.577,39386.074,14565.871,-61444.094,-17144.904,-16828.918,-27563.254,-62987.305,-24647.066,0
3.824,1595457117456.576,38035.312,14592.872,-61463.809,-17128.275,-16286.464,-27562.717,-62971.320,-24580.391,0
3.828,1595457117460.576,36271.312,14535.406,-61497.605,-17163.256,-15714.237,-27584.020,-62985.180,-24582.738,0
3.832,1595457117464.576,38250.047,14511.043,-61534.105,-17237.418,-15670.159,-27677.023,-63043.941,-24677.801,0
3.836,1595457117468.576,40022.070,14488.132,-61493.582,-17235.318,-16470.105,-27666.541,-63048.816,-24737.189,0
3.840,1595457117472.576,39429.570,14561.893,-61436.852,-17137.863,-16801.873,-27558.873,-62988.891,-24645.793,0
3.844,1595457117476.576,38048.656,14600.003,-61451.871,-17112.205,-16271.310,-27612.920,-62961.621,-24576.748,0
3.848,1595457117480.576,36261.414,14542.805,-61503.617,-17166.250,-15737.617,-27635.092,-62992.535,-24586.605,0
3.852,1595457117484.575,38267.684,14513.188,-61542.242,-17242.873,-15669.578,-27639.250,-63051.766,-24671.832,0
3.856,1595457117488.575,40055.645,14486.478,-61500.598,-17242.201,-16457.275,-27641.730,-63051.855,-24736.674,0
3.860,1595457117492.575,39456.324,14564.218,-61442.148,-17152.617,-16814.613,-27588.176,-62989.473,-24665.551,0
3.864,1595457117496.575,38090.344,14604.764,-61457.996,-17125.682,-16260.245,-27562.025,-62962.871,-24588.371,0
3.868,1595457117500.575,36261.703,14547.722,-61496.309,-17170.453,-15731.046,-27594.680,-62982.945,-24587.500,0
3.872,1595457117504.575,38238.535,14516.742,-61533.949,-17251.143,-15652.903,-27674.365,-63042.668,-24679.611,0
3.876,1595457117508.575,40061.031,14494.011,-61496.152,-17249.332,-16436.557,-27655.791,-63046.625,-24732.293,0
3.880,1595457117512.575,39476.266,14564.754,-61443.043,-17162.271,-16798.408,-27598.100,-62990.008,-24657.885,0
3.884,1595457117516.574,38096.379,14611.223,-61459.047,-17129.660,-16258.167,-27588.557,-62963.766,-24575.520,0
3.888,1595457117520.574,36248.449,14554.114,-61500.688,-17182.143,-15722.016,-27705.545,-62982.430,-24588.639,0
3.892,1595457117524.574,38224.633,14515.826,-61544.273,-17263.771,-15658.089,-27682.299,-63044.926,-24670.201,0
3.896,1595457117528.574,40099.676,14494.033,-61504.734,-17267.906,-16444.961,-27626.756,-63046.066,-24725.857,0
3.900,1595457117532.574,39526.285,14563.859,-61451.605,-17170.475,-16828.248,-27555.408,-62991.258,-24649.883,0
3.904,1595457117536.574,38130.980,14605.903,-61463.605,-17135.047,-16300.009,-27541.260,-62964.215,-24562.689,0
3.908,1595457117540.574,36246.793,14552.326,-61505.898,-17178.992,-15735.516,-27595.641,-62983.035,-24566.578,0
3.912,1595457117544.573,38211.824,14524.677,-61546.711,-17261.939,-15652.658,-27677.627,-63043.875,-24665.373,0
3.916,1595457117548.573,40122.406,14503.331,-61508.555,-17262.988,-16443.172,-27647.297,-63048.816,-24721.721,0
3.920,1595457117552.573,39581.137,14562.631,-61454.668,-17181.896,-16830.438,-27626.174,-62992.133,-24657.146,0
3.924,1595457117556.573,38203.309,14597.991,-61473.645,-17155.924,-16289.414,-27588.176,-62970.918,-24575.250,0
3.928,1595457117560.573,36268.297,14546.157,-61515.352,-17193.877,-15755.744,-27614.977,-62995.418,-24567.719,0
3.932,1595457117564.573,38216.809,14529.505,-61551.918,-17270.209,-15678.988,-27709.568,-63054.582,-24659.070,0
3.936,1595457117568.573,40169.391,14504.404,-61517.250,-17277.809,-16479.047,-27680.512,-63060.617,-24721.297,0
3.940,1595457117572.573,39644.816,14569.381,-61457.551,-17187.016,-16852.053,-27627.850,-62996.602,-24648.877,0
3.944,1595457117576.573,38238.672,14612.608,-61474.895,-17152.303,-16312.146,-27559.969,-62970.809,-24558.732,0
3.948,1595457117580.573,36289.574,14562.407,-61511.551,-17191.508,-15751.117,-27584.980,-62986.969,-24553.859,0
3.952,1595457117584.572,38225.797,14537.619,-61547.805,-17272.824,-15661.531,-27676.666,-63045.574,-24651.582,0
3.956,1595457117588.572,40205.355,14515.960,-61510.164,-17276.646,-16443.553,-27647.699,-63048.590,-24712.021,0
3.960,1595457117592.572,39700.785,14580.512,-61450.105,-17179.684,-16820.625,-27573.111,-62986.656,-24632.158,0
3.964,1595457117596.572,38273.316,14618.331,-61464.836,-17152.080,-16314.403,-27583.057,-62964.930,-24559.201,0
3.968,1595457117600.572,36246.773,14564.083,-61504.645,-17196.850,-15764.685,-27655.656,-62983.438,-24567.875,0
3.972,1595457117604.572,38165.781,14534.557,-61549.684,-17276.691,-15642.846,-27673.426,-63044.211,-24650.420,0
3.976,1595457117608.572,40229.562,14506.930,-61517.699,-17283.150,-16420.842,-27622.934,-63055.656,-24711.484,0
3.980,1595457117612.571,39723.652,14581.406,-61447.625,-17181.965,-16846.264,-27582.477,-62988.621,-24636.986,0
3.984,1595457117616.571,38303.020,14628.680,-61459.426,-17149.062,-16320.350,-27563.969,-62959.363,-24547.490,0
3.988,1595457117620.571,36264.340,14574.924,-61505.918,-17191.463,-15773.894,-27602.594,-62981.023,-24543.533,0
3.992,1595457117624.571,38158.898,14546.045,-61543.648,-17273.695,-15644.790,-27649.375,-63039.426,-24637.299,0
3.996,1595457117628.571,40228.488,14517.055,-61504.445,-17278.703,-16417.535,-27650.471,-63046.715,-24703.482,0
4.000,1595457117632.571,39762.164,14578.813,-61443.492,-17193.475,-16835.109,-27647.945,-62986.633,-24638.439,0
4.004,1595457117636.571,38327.855,14630.423,-61452.945,-17148.861,-16301.976,-27535.516,-62955.520,-24530.994,0
4.008,1595457117640.571,36223.480,14574.410,-61497.516,-17196.090,-15740.455,-27560.684,-62976.148,-24522.656,0
4.012,1595457117644.570,38113.031,14548.325,-61542.352,-17286.369,-15618.974,-27692.402,-63042.625,-24626.615,0
4.016,1595457117648.570,40251.309,14519.760,-61506.613,-17290.705,-16403.744,-27668.418,-63050.516,-24691.076,0
4.020,1595457117652.570,39817.977,14578.902,-61450.309,-17194.258,-16842.150,-27534.576,-62993.652,-24605.426,0
4.024,1595457117656.570,38362.992,14634.290,-61452.320,-17156.885,-16331.860,-27541.506,-62957.238,-24531.463,0
4.028,1595457117660.570,36228.691,14580.557,-61490.051,-17195.285,-15764.707,-27579.906,-62973.469,-24523.953,0
4.032,1595457117664.570,38098.949,14550.605,-61536.562,-17283.553,-15642.823,-27705.881,-63044.008,-24625.787,0
4.036,1595457117668.570,40246.258,14523.851,-61502.164,-17292.137,-16399.854,-27634.713,-63049.418,-24682.875,0
4.040,1595457117672.569,39831.477,14586.793,-61438.262,-17194.570,-16844.900,-27540.119,-62986.656,-24597.557,0
4.044,1595457117676.569,38368.465,14639.565,-61446.309,-17157.980,-16345.249,-27578.877,-62956.055,-24522.076,0
4.048,1595457117680.569,36212.305,14587.352,-61486.742,-17199.980,-15778.900,-27591.016,-62971.188,-24509.580,0
4.052,1595457117684.569,38050.180,14565.268,-61528.895,-17284.223,-15637.168,-27687.439,-63031.715,-24599.234,0
4.056,1595457117688.569,40228.668,14544.973,-61497.246,-17287.643,-16402.180,-27639.965,-63042.332,-24660.076,0
4.060,1595457117692.569,39837.715,14593.812,-61447.426,-17210.553,-16864.369,-27605.945,-62998.902,-24605.693,0
4.064,1595457117696.569,38381.477,14635.341,-61456.031,-17166.139,-16345.227,-27512.895,-62968.281,-24512.174,0
4.068,1595457117700.569,36185.527,14590.682,-61489.043,-17200.516,-15769.870,-27571.994,-62975.926,-24504.418,0
4.072,1595457117704.568,38008.043,14564.352,-61539.043,-17291.264,-15613.542,-27667.211,-63045.016,-24601.693,0
4.076,1595457117708.568,40227.348,14541.284,-61504.242,-17295.959,-16384.789,-27649.486,-63056.840,-24672.793,0
4.080,1595457117712.568,39831.121,14603.020,-61433.902,-17199.801,-16843.156,-27583.729,-62988.285,-24602.922,0
4.084,1595457117716.568,38365.406,14657.200,-61441.969,-17154.986,-16336.331,-27538.645,-62955.250,-24505.625,0
4.088,1595457117720.568,36192.031,14601.411,-61487.367,-17197.096,-15760.595,-27581.404,-62976.508,-24498.293,0
4.092,1595457117724.568,37962.605,14577.360,-61526.484,-17276.736,-15629.501,-27701.230,-63034.441,-24589.689,0
4.096,1595457117728.568,40175.402,14542.514,-61499.258,-17287.084,-16393.484,-27643.027,-63046.758,-24659.002,0
4.100,1595457117732.567,39831.523,14597.275,-61442.953,-17203.154,-16857.350,-27534.174,-62990.855,-24594.250,0
4.104,1595457117736.567,38403.246,14653.133,-61448.094,-17162.139,-16364.359,-27525.904,-62955.316,-24502.541,0
4.108,1595457117740.567,36184.746,14611.826,-61483.746,-17193.430,-15804.023,-27595.127,-62968.953,-24491.365,0
4.112,1595457117744.567,37931.000,14592.447,-61528.492,-17276.512,-15635.938,-27663.189,-63030.891,-24581.934,0
4.116,1595457117748.567,40185.371,14559.836,-61502.008,-17298.260,-16390.713,-27622.910,-63049.375,-24657.863,0
4.120,1595457117752.567,39833.758,14619.493,-61437.543,-17207.221,-16864.412,-27555.072,-62991.148,-24594.451,0
4.124,1595457117756.567,38400.945,14678.904,-61444.340,-17171.705,-16379.604,-27581.291,-62958.691,-24515.594,0
4.128,1595457117760.567,36180.609,14638.560,-61482.785,-17197.008,-15821.234,-27575.033,-62972.305,-24489.598,0
4.132,1595457117764.566,37902.590,14610.128,-61525.945,-17278.232,-15649.327,-27621.547,-63033.059,-24573.328,0
4.136,1595457117768.566,40127.883,14574.052,-61498.387,-17301.547,-16391.025,-27644.369,-63048.414,-24655.158,0
4.140,1595457117772.566,39791.512,14636.771,-61432.941,-17221.371,-16865.195,-27634.422,-62989.336,-24603.973,0
4.144,1595457117776.566,38387.801,14688.851,-61443.133,-17179.080,-16364.605,-27549.775,-62958.516,-24506.363,0
4.148,1595457117780.566,36178.176,14638.716,-61478.137,-17205.613,-15788.355,-27557.846,-62969.938,-24482.760,0
4.152,1595457117784.566,37853.863,14611.737,-61525.520,-17292.002,-15626.976,-27692.580,-63032.098,-24584.168,0
4.156,1595457117788.566,40087.762,14578.500,-61494.184,-17305.883,-16364.963,-27610.752,-63043.047,-24645.367,0
4.160,1595457117792.565,39759.840,14636.190,-61437.613,-17229.863,-16853.191,-27576.307,-62993.316,-24600.396,0
4.164,1595457117796.565,38360.664,14689.499,-61449.191,-17196.158,-16377.793,-27582.812,-62964.168,-24521.338,0
4.168,1595457117800.565,36134.254,14644.170,-61481.020,-17224.791,-15768.552,-27576.910,-62967.902,-24499.008,0
4.172,1595457117804.565,37775.789,14627.942,-61527.086,-17307.982,-15606.971,-27668.865,-63035.270,-24590.137,0
4.176,1595457117808.565,40057.855,14596.672,-61494.988,-17316.812,-16358.481,-27629.414,-63049.062,-24659.561,0
4.180,1595457117812.565,39781.969,14653.155,-61434.371,-17232.770,-16845.279,-27563.879,-62992.668,-24601.447,0
4.184,1595457117816.565,38396.137,14706.710,-61446.754,-17193.832,-16376.765,-27550.312,-62964.637,-24517.627,0
4.188,1595457117820.565,36147.418,14660.956,-61476.035,-17227.965,-15803.778,-27605.209,-62964.078,-24502.049,0
4.192,1595457117824.564,37782.336,14641.130,-61519.598,-17305.166,-15606.814,-27686.389,-63021.770,-24586.494,0
4.196,1595457117828.564,40055.578,14608.831,-61494.922,-17320.611,-16357.989,-27643.586,-63038.914,-24660.881,0
4.200,1595457117832.564,39784.672,14664.442,-61425.297,-17235.967,-16837.971,-27574.721,-62973.379,-24600.105,0
4.204,1595457117836.564,38418.086,14718.221,-61429.254,-17191.619,-16364.985,-27507.621,-62943.562,-24500.215,0
4.208,1595457117840.564,36184.410,14666.253,-61468.883,-17226.086,-15803.600,-27566.449,-62958.223,-24492.930,0
4.212,1595457117844.564,37775.430,14640.348,-61518.973,-17322.154,-15625.479,-27694.615,-63023.871,-24594.137,0
4.216,1595457117848.564,40070.441,14610.262,-61490.539,-17338.516,-16348.423,-27670.006,-63037.660,-24666.580,0
4.220,1595457117852.563,39812.547,14662.722,-61425.633,-17245.846,-16851.449,-27582.365,-62977.602,-24605.023,0
4.224,1595457117856.563,38449.090,14724.681,-61431.844,-17202.639,-16383.560,-27521.658,-62945.191,-24513.447,0
4.228,1595457117860.563,36210.250,14680.826,-61462.020,-17232.523,-15795.598,-27550.781,-62947.898,-24491.654,0
4.232,1595457117864.563,37766.801,14644.505,-61520.156,-17325.998,-15614.102,-27650.627,-63024.676,-24592.170,0
4.236,1595457117868.563,40054.859,14605.166,-61494.027,-17352.889,-16362.035,-27679.840,-63048.434,-24681.107,0
4.240,1595457117872.563,39809.641,14663.190,-61422.637,-17249.980,-16860.881,-27537.930,-62981.961,-24597.959,0
4.244,1595457117876.563,38474.035,14724.882,-61431.219,-17212.564,-16390.400,-27534.979,-62950.199,-24514.074,0
4.248,1595457117880.563,36227.797,14659.973,-61481.398,-17263.102,-15832.254,-27598.615,-62975.211,-24511.771,0
4.252,1595457117884.562,37747.738,14637.732,-61526.953,-17346.764,-15631.535,-27673.717,-63036.051,-24594.295,0
4.256,1595457117888.562,40043.840,14616.609,-61494.652,-17363.416,-16354.972,-27663.367,-63046.332,-24669.844,0
4.260,1595457117892.562,39813.352,14674.680,-61430.305,-17270.879,-16872.951,-27552.615,-62989.246,-24605.918,0
4.264,1595457117896.562,38494.238,14740.773,-61432.941,-17219.850,-16429.627,-27548.770,-62956.168,-24511.838,0
4.268,1595457117900.562,36255.957,14681.608,-61473.352,-17259.658,-15835.853,-27575.369,-62965.824,-24500.975,0
4.272,1595457117904.562,37759.539,14645.398,-61526.035,-17350.205,-15622.685,-27623.850,-63032.969,-24588.639,0
4.276,1595457117908.562,40073.949,14615.560,-61498.027,-17372.355,-16367.914,-27634.869,-63051.230,-24670.691,0
4.280,1595457117912.562,39831.633,14666.119,-61429.184,-17278.188,-16915.396,-27606.818,-62992.465,-24617.674,0
4.284,1595457117916.562,38529.734,14722.915,-61435.289,-17237.285,-16433.852,-27574.139,-62957.395,-24526.568,0
