%OpenBCI Raw EEG Data
%Number of channels = 8
%Sample Rate = 250.0 Hz
%First Column = SampleIndex
%Last Column = Timestamp 
%Other Columns = EEG data in microvolts followed by Accel Data (in G) interleaved with Aux Data
86, 8587.56, 6539.09, -52396.02, -70256.18, -43068.77, -46731.28, -68981.10, -64595.78, 0.000, 0.000, 0.000, 13:05:12.281, 1584014712281
87, 18195.50, 8940.27, -52349.08, -69998.77, -43406.64, -44597.68, -69440.01, -59174.32, 0.000, 0.000, 0.000, 13:05:12.282, 1584014712282
88, 21976.03, 9173.58, -52432.43, -70395.21, -43289.89, -45827.40, -69015.73, -57872.53, 0.000, 0.000, 0.000, 13:05:12.282, 1584014712282
89, 15197.24, 7207.07, -52429.84, -70767.37, -42760.09, -48116.73, -68219.53, -61798.46, 0.000, 0.000, 0.000, 13:05:12.282, 1584014712282
90, 7171.47, 5537.13, -52368.75, -70645.63, -42678.98, -48862.61, -68256.59, -66495.95, 0.000, 0.000, 0.000, 13:05:12.282, 1584014712282
91, 8575.89, 6555.74, -52400.96, -70253.07, -43087.59, -46726.03, -68972.16, -64590.46, 0.000, 0.000, 0.000, 13:05:12.282, 1584014712282
92, 18220.61, 8968.64, -52351.61, -69997.64, -43425.91, -44585.78, -69437.97, -59136.95, 0.000, 0.000, 0.000, 13:05:12.282, 1584014712282
93, 21970.02, 9186.08, -52438.51, -70400.70, -43314.68, -45843.92, -69031.77, -57877.85, 0.028, 0.882, 0.424, 13:05:12.282, 1584014712282
94, 15140.98, 7198.02, -52431.78, -70770.23, -42787.23, -48139.82, -68241.93, -61839.79, 0.000, 0.000, 0.000, 13:05:12.282, 1584014712282
95, 7108.17, 5524.03, -52369.13, -70646.59, -42704.48, -48862.61, -68278.59, -66518.90, 0.000, 0.000, 0.000, 13:05:12.282, 1584014712282
96, 8552.31, 6549.98, -52403.80, -70256.60, -43110.79, -46711.81, -69002.49, -64571.55, 0.000, 0.000, 0.000, 13:05:12.282, 1584014712282
97, 18244.68, 8965.80, -52351.00, -69997.50, -43439.61, -44561.64, -69468.86, -59085.70, 0.000, 0.000, 0.000, 13:05:12.282, 1584014712282
98, 21978.60, 9171.50, -52438.29, -70406.07, -43321.12, -45837.59, -69058.08, -57855.25, 0.000, 0.000, 0.000, 13:05:12.282, 1584014712282
99, 15143.31, 7176.03, -52435.31, -70781.40, -42762.35, -48147.09, -68256.05, -61837.86, 0.000, 0.000, 0.000, 13:05:12.282, 1584014712282
100, 7137.49, 5502.75, -52373.46, -70654.84, -42642.07, -48863.53, -68283.73, -66502.63, 0.000, 0.000, 0.000, 13:05:12.282, 1584014712282
101, 8583.32, 6541.55, -52407.15, -70258.70, -43069.29, -46716.29, -69024.80, -64558.30, 0.000, 0.000, 0.000, 13:05:12.282, 1584014712282
102, 18265.60, 8961.48, -52357.64, -70001.93, -43418.87, -44561.09, -69495.13, -59083.30, 0.000, 0.000, 0.000, 13:05:12.282, 1584014712282
103, 21968.41, 9171.57, -52442.49, -70400.37, -43320.68, -45845.97, -69081.41, -57877.63, 0.034, 0.880, 0.422, 13:05:12.282, 1584014712282
104, 15131.28, 7181.97, -52431.18, -70771.01, -42766.84, -48144.67, -68252.95, -61853.76, 0.000, 0.000, 0.000, 13:05:12.282, 1584014712282
105, 7164.34, 5514.62, -52374.65, -70647.73, -42646.84, -48856.26, -68263.77, -66487.41, 0.000, 0.000, 0.000, 13:05:12.282, 1584014712282
106, 8629.79, 6554.49, -52412.74, -70252.23, -43086.20, -46714.00, -69007.56, -64536.08, 0.000, 0.000, 0.000, 13:05:12.282, 1584014712282
107, 18324.07, 8983.12, -52353.21, -69992.09, -43448.48, -44557.62, -69480.22, -59051.99, 0.000, 0.000, 0.000, 13:05:12.282, 1584014712282
108, 22028.76, 9185.20, -52433.59, -70400.41, -43332.81, -45846.22, -69054.39, -57849.20, 0.000, 0.000, 0.000, 13:05:12.282, 1584014712282
109, 15168.52, 7189.48, -52430.75, -70774.90, -42773.44, -48157.21, -68231.09, -61856.77, 0.000, 0.000, 0.000, 13:05:12.283, 1584014712283
110, 7186.69, 5527.65, -52372.91, -70650.87, -42657.97, -48863.04, -68246.45, -66504.82, 0.000, 0.000, 0.000, 13:05:12.283, 1584014712283
111, 8642.26, 6565.85, -52410.12, -70259.78, -43105.61, -46717.80, -69000.55, -64557.31, 0.000, 0.000, 0.000, 13:05:12.283, 1584014712283
112, 18330.02, 8981.11, -52359.54, -70004.99, -43464.06, -44564.57, -69483.50, -59075.57, 0.034, 0.886, 0.428, 13:05:12.283, 1584014712283
113, 22040.85, 9177.87, -52442.31, -70413.89, -43330.98, -45853.29, -69052.56, -57852.84, 0.000, 0.000, 0.000, 13:05:12.283, 1584014712283
114, 15201.89, 7183.67, -52432.65, -70786.43, -42754.95, -48156.88, -68222.28, -61841.84, 0.000, 0.000, 0.000, 13:05:12.283, 1584014712283
115, 7230.41, 5524.19, -52372.71, -70655.18, -42644.80, -48862.81, -68254.34, -66494.78, 0.000, 0.000, 0.000, 13:05:12.283, 1584014712283
116, 8661.84, 6563.66, -52409.16, -70253.23, -43114.90, -46723.79, -69030.16, -64574.30, 0.000, 0.000, 0.000, 13:05:12.283, 1584014712283
117, 18288.71, 8967.72, -52358.49, -69999.89, -43500.11, -44582.77, -69522.44, -59137.10, 0.000, 0.000, 0.000, 13:05:12.283, 1584014712283
118, 21981.73, 9164.86, -52437.86, -70407.03, -43354.31, -45854.22, -69073.82, -57909.50, 0.000, 0.000, 0.000, 13:05:12.283, 1584014712283
119, 15184.30, 7179.80, -52429.68, -70777.45, -42742.95, -48147.27, -68220.80, -61854.54, 0.000, 0.000, 0.000, 13:05:12.283, 1584014712283
120, 7263.78, 5524.41, -52371.57, -70652.34, -42610.16, -48852.22, -68241.23, -66474.66, 0.000, 0.000, 0.000, 13:05:12.283, 1584014712283
121, 8745.37, 6560.17, -52411.20, -70258.59, -43056.99, -46713.60, -69010.14, -64530.16, 0.000, 0.000, 0.000, 13:05:12.283, 1584014712283
122, 18365.06, 8968.73, -52359.43, -69999.18, -43463.70, -44574.61, -69518.04, -59103.44, 0.034, 0.884, 0.430, 13:05:12.283, 1584014712283
123, 22035.31, 9164.73, -52441.04, -70403.90, -43339.34, -45849.66, -69067.65, -57885.34, 0.000, 0.000, 0.000, 13:05:12.283, 1584014712283
124, 15233.54, 7177.64, -52436.99, -70781.96, -42727.66, -48142.15, -68202.23, -61825.95, 0.000, 0.000, 0.000, 13:05:12.283, 1584014712283
125, 7343.58, 5531.74, -52381.27, -70655.74, -42577.79, -48847.30, -68213.68, -66428.06, 0.000, 0.000, 0.000, 13:05:12.283, 1584014712283
126, 8797.02, 6566.76, -52418.48, -70261.30, -43050.20, -46727.19, -69004.19, -64524.16, 0.000, 0.000, 0.000, 13:05:12.283, 1584014712283
127, 18367.90, 8962.11, -52365.44, -70010.16, -43464.11, -44610.97, -69517.52, -59149.60, 0.000, 0.000, 0.000, 13:05:12.283, 1584014712283
128, 22044.56, 9158.27, -52437.50, -70416.02, -43315.87, -45858.49, -69047.87, -57910.42, 0.000, 0.000, 0.000, 13:05:12.283, 1584014712283
129, 15308.22, 7183.78, -52431.80, -70788.98, -42681.73, -48128.02, -68168.98, -61795.29, 0.000, 0.000, 0.000, 13:05:12.283, 1584014712283
130, 7468.14, 5540.95, -52385.49, -70670.38, -42540.78, -48835.36, -68184.33, -66377.93, 0.000, 0.000, 0.000, 13:05:12.283, 1584014712283
131, 8916.25, 6560.44, -52431.78, -70286.33, -43026.70, -46740.16, -68990.20, -64510.64, 0.000, 0.000, 0.000, 13:05:12.284, 1584014712284
132, 18438.20, 8938.60, -52383.39, -70033.83, -43458.50, -44638.18, -69519.13, -59193.65, 0.038, 0.886, 0.428, 13:05:12.284, 1584014712284
133, 22116.69, 9141.28, -52451.09, -70430.59, -43301.18, -45860.39, -69033.83, -57928.57, 0.000, 0.000, 0.000, 13:05:12.284, 1584014712284
134, 15451.78, 7190.20, -52440.92, -70796.17, -42646.37, -48108.39, -68134.41, -61739.02, 0.000, 0.000, 0.000, 13:05:12.284, 1584014712284
135, 7633.66, 5563.46, -52383.73, -70667.41, -42517.31, -48828.48, -68161.22, -66320.84, 0.000, 0.000, 0.000, 13:05:12.284, 1584014712284
136, 9056.64, 6574.14, -52422.37, -70281.15, -43007.91, -46745.23, -68969.97, -64504.59, 0.000, 0.000, 0.000, 13:05:12.284, 1584014712284
137, 18506.55, 8937.01, -52368.50, -70023.70, -43454.65, -44662.11, -69512.70, -59265.54, 0.000, 0.000, 0.000, 13:05:12.284, 1584014712284
138, 22245.91, 9147.99, -52441.30, -70419.52, -43247.25, -45833.34, -68997.35, -57928.25, 0.000, 0.000, 0.000, 13:05:12.284, 1584014712284
139, 15668.30, 7215.84, -52433.88, -70784.09, -42572.67, -48051.82, -68095.77, -61650.58, 0.000, 0.000, 0.000, 13:05:12.284, 1584014712284
140, 7906.08, 5588.25, -52384.84, -70670.24, -42439.50, -48799.67, -68140.12, -66203.45, 0.000, 0.000, 0.000, 13:05:12.284, 1584014712284
141, 9239.36, 6578.07, -52427.27, -70289.51, -42978.56, -46771.27, -68995.25, -64494.32, 0.000, 0.000, 0.000, 13:05:12.284, 1584014712284
142, 18616.01, 8914.50, -52373.15, -70039.01, -43430.62, -44693.34, -69539.94, -59309.66, 0.042, 0.890, 0.434, 13:05:12.284, 1584014712284
143, 22327.07, 9142.78, -52435.09, -70419.37, -43255.18, -45823.89, -69030.01, -57935.07, 0.000, 0.000, 0.000, 13:05:12.284, 1584014712284
144, 15743.88, 7210.20, -52429.64, -70791.08, -42575.07, -48051.20, -68120.98, -61636.65, 0.000, 0.000, 0.000, 13:05:12.285, 1584014712285
145, 7948.53, 5580.54, -52381.54, -70673.53, -42453.98, -48813.30, -68167.48, -66225.11, 0.000, 0.000, 0.000, 13:05:12.285, 1584014712285
146, 9312.14, 6581.92, -52416.38, -70283.05, -42977.46, -46758.57, -68998.70, -64488.98, 0.000, 0.000, 0.000, 13:05:12.285, 1584014712285
147, 18711.31, 8928.81, -52365.06, -70024.75, -43430.69, -44679.84, -69537.46, -59291.40, 0.000, 0.000, 0.000, 13:05:12.285, 1584014712285
148, 22390.10, 9139.18, -52434.31, -70413.55, -43246.49, -45833.30, -69013.34, -57956.20, 0.000, 0.000, 0.000, 13:05:12.285, 1584014712285
149, 15829.13, 7210.58, -52426.33, -70783.23, -42553.96, -48034.43, -68080.75, -61636.90, 0.000, 0.000, 0.000, 13:05:12.285, 1584014712285
150, 8103.60, 5599.09, -52376.75, -70665.57, -42431.86, -48775.28, -68120.67, -66148.33, 0.000, 0.000, 0.000, 13:05:12.285, 1584014712285
151, 9423.99, 6587.30, -52412.13, -70279.42, -42998.16, -46751.40, -68978.24, -64464.75, 0.044, 0.888, 0.436, 13:05:12.285, 1584014712285
152, 18750.39, 8909.25, -52361.11, -70033.02, -43465.71, -44695.91, -69520.77, -59351.30, 0.000, 0.000, 0.000, 13:05:12.285, 1584014712285
153, 22407.27, 9118.93, -52426.20, -70420.11, -43258.67, -45827.38, -68981.70, -58018.27, 0.000, 0.000, 0.000, 13:05:12.285, 1584014712285
154, 15869.69, 7205.51, -52415.15, -70781.53, -42557.52, -48007.32, -68039.73, -61656.75, 0.000, 0.000, 0.000, 13:05:12.285, 1584014712285
155, 8268.51, 5600.36, -52372.24, -70674.52, -42365.36, -48732.59, -68043.60, -66087.53, 0.000, 0.000, 0.000, 13:05:12.285, 1584014712285
156, 9633.56, 6589.52, -52412.85, -70290.55, -42915.64, -46743.51, -68913.98, -64415.45, 0.000, 0.000, 0.000, 13:05:12.285, 1584014712285
157, 18941.65, 8906.70, -52356.97, -70037.89, -43399.42, -44703.98, -69478.32, -59346.16, 0.000, 0.000, 0.000, 13:05:12.285, 1584014712285
158, 22582.50, 9109.30, -52428.21, -70425.12, -43196.89, -45829.55, -68949.48, -58019.27, 0.000, 0.000, 0.000, 13:05:12.285, 1584014712285
159, 16044.28, 7198.74, -52423.24, -70791.05, -42497.10, -48016.62, -68029.27, -61649.51, 0.000, 0.000, 0.000, 13:05:12.285, 1584014712285
160, 8400.75, 5604.12, -52374.98, -70672.23, -42347.05, -48740.35, -68065.66, -66096.21, 0.000, 0.000, 0.000, 13:05:12.285, 1584014712285
161, 9770.46, 6596.98, -52418.68, -70291.90, -42899.75, -46737.86, -68939.38, -64402.66, 0.038, 0.886, 0.432, 13:05:12.285, 1584014712285
162, 19060.85, 8914.46, -52364.04, -70039.88, -43389.63, -44705.84, -69512.05, -59339.66, 0.000, 0.000, 0.000, 13:05:12.285, 1584014712285
163, 22634.56, 9113.01, -52429.73, -70418.32, -43202.23, -45829.93, -68989.84, -58046.45, 0.000, 0.000, 0.000, 13:05:12.286, 1584014712286
164, 16071.60, 7198.47, -52421.68, -70783.48, -42499.20, -48010.11, -68056.99, -61680.87, 0.000, 0.000, 0.000, 13:05:12.286, 1584014712286
165, 8443.48, 5607.20, -52371.86, -70663.90, -42332.01, -48722.18, -68073.58, -66109.53, 0.000, 0.000, 0.000, 13:05:12.286, 1584014712286
166, 9840.87, 6604.94, -52411.06, -70280.30, -42877.17, -46715.41, -68934.99, -64392.20, 0.000, 0.000, 0.000, 13:05:12.286, 1584014712286
167, 19166.31, 8920.04, -52363.96, -70034.98, -43361.40, -44699.87, -69502.34, -59303.33, 0.000, 0.000, 0.000, 13:05:12.286, 1584014712286
168, 22671.29, 9112.38, -52427.67, -70411.48, -43212.38, -45855.90, -68994.24, -58056.29, 0.000, 0.000, 0.000, 13:05:12.286, 1584014712286
169, 16108.41, 7199.52, -52419.89, -70780.73, -42500.77, -48022.18, -68047.45, -61671.93, 0.000, 0.000, 0.000, 13:05:12.286, 1584014712286
170, 8452.78, 5611.29, -52370.14, -70659.85, -42358.75, -48742.36, -68082.88, -66118.05, 0.000, 0.000, 0.000, 13:05:12.286, 1584014712286
171, 9809.13, 6607.87, -52416.49, -70278.71, -42939.51, -46745.70, -68968.32, -64416.29, 0.030, 0.884, 0.430, 13:05:12.286, 1584014712286
172, 19062.44, 8923.80, -52365.33, -70029.91, -43479.19, -44727.11, -69557.30, -59360.24, 0.000, 0.000, 0.000, 13:05:12.286, 1584014712286
173, 22553.22, 9108.02, -52427.67, -70408.82, -43304.83, -45859.12, -69017.06, -58088.34, 0.000, 0.000, 0.000, 13:05:12.286, 1584014712286
174, 15990.68, 7198.11, -52418.86, -70770.70, -42565.36, -48024.35, -68048.12, -61687.77, 0.000, 0.000, 0.000, 13:05:12.286, 1584014712286
175, 8352.65, 5606.73, -52373.24, -70652.01, -42400.09, -48750.47, -68067.45, -66126.00, 0.000, 0.000, 0.000, 13:05:12.286, 1584014712286
176, 9728.57, 6607.82, -52417.97, -70267.52, -42971.63, -46737.88, -68956.85, -64412.09, 0.000, 0.000, 0.000, 13:05:12.286, 1584014712286
177, 18956.00, 8929.77, -52366.92, -70013.08, -43541.09, -44719.51, -69577.05, -59366.99, 0.000, 0.000, 0.000, 13:05:12.286, 1584014712286
178, 22368.87, 9106.12, -52427.94, -70392.95, -43402.75, -45856.95, -69062.44, -58122.63, 0.000, 0.000, 0.000, 13:05:12.286, 1584014712286
179, 15762.49, 7184.79, -52423.58, -70766.47, -42667.15, -48025.87, -68101.92, -61731.89, 0.000, 0.000, 0.000, 13:05:12.287, 1584014712287
180, 8118.60, 5592.34, -52385.78, -70652.38, -42492.27, -48751.19, -68127.27, -66171.42, 0.000, 0.000, 0.000, 13:05:12.287, 1584014712287
181, 9475.78, 6598.61, -52426.71, -70259.47, -43076.48, -46740.20, -69016.84, -64468.08, 0.022, 0.888, 0.434, 13:05:12.287, 1584014712287
182, 18765.25, 8920.94, -52370.83, -70009.62, -43592.56, -44698.91, -69597.34, -59367.82, 0.000, 0.000, 0.000, 13:05:12.287, 1584014712287
183, 22220.23, 9098.17, -52432.74, -70392.10, -43408.47, -45846.24, -69062.87, -58103.60, 0.000, 0.000, 0.000, 13:05:12.287, 1584014712287
184, 15621.54, 7180.01, -52421.12, -70759.79, -42660.74, -48014.34, -68098.72, -61719.96, 0.000, 0.000, 0.000, 13:05:12.287, 1584014712287
185, 7981.27, 5587.78, -52377.04, -70644.83, -42486.66, -48732.86, -68125.92, -66162.15, 0.000, 0.000, 0.000, 13:05:12.287, 1584014712287
186, 9341.53, 6599.11, -52416.25, -70252.40, -43089.49, -46718.63, -69029.96, -64459.10, 0.000, 0.000, 0.000, 13:05:12.287, 1584014712287
187, 18610.26, 8924.29, -52367.12, -70002.11, -43645.27, -44685.92, -69629.98, -59366.66, 0.000, 0.000, 0.000, 13:05:12.287, 1584014712287
188, 22025.23, 9093.07, -52430.22, -70387.88, -43480.40, -45827.94, -69096.95, -58106.09, 0.000, 0.000, 0.000, 13:05:12.287, 1584014712287
189, 15369.82, 7169.39, -52421.03, -70754.84, -42752.49, -48010.14, -68134.64, -61756.37, 0.000, 0.000, 0.000, 13:05:12.287, 1584014712287
190, 7742.33, 5576.72, -52379.66, -70644.34, -42555.60, -48727.72, -68142.94, -66187.85, 0.026, 0.882, 0.428, 13:05:12.287, 1584014712287
191, 9139.87, 6589.36, -52426.21, -70254.01, -43143.20, -46716.69, -69048.20, -64462.81, 0.000, 0.000, 0.000, 13:05:12.287, 1584014712287
192, 18434.71, 8919.26, -52378.70, -70005.62, -43697.61, -44693.41, -69658.70, -59364.58, 0.000, 0.000, 0.000, 13:05:12.287, 1584014712287
193, 21821.25, 9083.44, -52439.00, -70391.25, -43538.20, -45849.46, -69123.08, -58134.49, 0.000, 0.000, 0.000, 13:05:12.287, 1584014712287
194, 15215.82, 7147.89, -52439.45, -70774.61, -42755.20, -48024.80, -68132.72, -61760.35, 0.000, 0.000, 0.000, 13:05:12.287, 1584014712287
195, 7589.98, 5561.61, -52392.44, -70654.09, -42562.41, -48739.81, -68154.89, -66212.95, 0.000, 0.000, 0.000, 13:05:12.287, 1584014712287
196, 9013.47, 6581.67, -52430.75, -70262.57, -43141.12, -46711.66, -69054.13, -64475.23, 0.000, 0.000, 0.000, 13:05:12.287, 1584014712287
197, 18355.25, 8919.44, -52387.75, -70014.80, -43680.71, -44682.50, -69661.27, -59346.05, 0.000, 0.000, 0.000, 13:05:12.287, 1584014712287
198, 21755.38, 9076.04, -52451.92, -70404.39, -43501.23, -45847.27, -69124.73, -58114.00, 0.000, 0.000, 0.000, 13:05:12.287, 1584014712287
199, 15143.57, 7140.00, -52442.93, -70780.20, -42709.02, -48027.53, -68129.32, -61757.02, 0.000, 0.000, 0.000, 13:05:12.287, 1584014712287
200, 7515.84, 5551.77, -52400.54, -70659.43, -42526.18, -48745.44, -68158.60, -66223.99, 0.026, 0.882, 0.426, 13:05:12.287, 1584014712287
201, 8941.01, 6573.07, -52439.63, -70263.73, -43130.64, -46713.73, -69072.90, -64485.85, 0.000, 0.000, 0.000, 13:05:12.287, 1584014712287
202, 18262.11, 8910.59, -52389.85, -70013.33, -43714.20, -44687.53, -69696.41, -59364.51, 0.000, 0.000, 0.000, 13:05:12.287, 1584014712287
203, 21661.72, 9063.27, -52447.23, -70406.80, -43522.02, -45855.47, -69135.73, -58125.08, 0.000, 0.000, 0.000, 13:05:12.287, 1584014712287
204, 15053.59, 7122.34, -52442.06, -70786.19, -42703.83, -48048.16, -68126.48, -61775.01, 0.000, 0.000, 0.000, 13:05:12.287, 1584014712287
205, 7445.48, 5544.98, -52395.91, -70656.41, -42512.64, -48751.43, -68151.70, -66238.12, 0.000, 0.000, 0.000, 13:05:12.287, 1584014712287
206, 8919.64, 6579.15, -52433.14, -70259.60, -43116.34, -46712.42, -69063.96, -64468.60, 0.000, 0.000, 0.000, 13:05:12.763, 1584014712763
207, 18285.34, 8922.77, -52385.40, -70008.97, -43698.51, -44682.10, -69687.40, -59313.61, 0.000, 0.000, 0.000, 13:05:12.763, 1584014712763
208, 21658.01, 9071.30, -52442.98, -70400.08, -43520.34, -45869.71, -69132.24, -58103.89, 0.000, 0.000, 0.000, 13:05:12.763, 1584014712763
209, 14994.51, 7125.65, -52433.66, -70776.88, -42724.75, -48071.85, -68127.00, -61816.52, 0.000, 0.000, 0.000, 13:05:12.763, 1584014712763
210, 7388.03, 5544.28, -52389.05, -70646.93, -42527.52, -48760.64, -68141.55, -66281.73, 0.028, 0.884, 0.428, 13:05:12.763, 1584014712763
211, 8887.01, 6582.10, -52433.12, -70254.08, -43138.17, -46707.81, -69060.59, -64477.76, 0.000, 0.000, 0.000, 13:05:12.763, 1584014712763
212, 18284.80, 8934.84, -52386.61, -70004.81, -43729.98, -44671.23, -69694.10, -59285.56, 0.000, 0.000, 0.000, 13:05:12.763, 1584014712763
213, 21632.44, 9075.68, -52442.51, -70398.29, -43557.54, -45877.45, -69140.58, -58100.74, 0.000, 0.000, 0.000, 13:05:12.763, 1584014712763
214, 14929.24, 7119.97, -52427.56, -70773.47, -42752.31, -48091.39, -68125.90, -61857.07, 0.000, 0.000, 0.000, 13:05:12.763, 1584014712763
215, 7364.27, 5541.06, -52382.52, -70647.18, -42509.93, -48752.42, -68117.92, -66293.23, 0.000, 0.000, 0.000, 13:05:12.763, 1584014712763
216, 8904.17, 6589.54, -52429.01, -70250.81, -43123.09, -46695.59, -69052.96, -64462.56, 0.000, 0.000, 0.000, 13:05:12.763, 1584014712763
217, 18328.03, 8951.72, -52379.81, -69999.23, -43737.22, -44650.69, -69699.24, -59240.82, 0.000, 0.000, 0.000, 13:05:12.763, 1584014712763
218, 21646.12, 9084.26, -52430.89, -70394.18, -43574.79, -45879.01, -69143.09, -58080.98, 0.000, 0.000, 0.000, 13:05:12.763, 1584014712763
219, 14890.08, 7103.45, -52421.37, -70777.87, -42760.56, -48116.93, -68119.58, -61895.55, 0.000, 0.000, 0.000, 13:05:12.763, 1584014712763
220, 7289.31, 5516.12, -52379.34, -70648.92, -42521.89, -48768.75, -68116.85, -66365.79, 0.032, 0.878, 0.424, 13:05:12.763, 1584014712763
221, 8874.36, 6581.72, -52425.39, -70250.59, -43127.04, -46680.97, -69046.86, -64467.77, 0.000, 0.000, 0.000, 13:05:12.763, 1584014712763
222, 18328.27, 8962.18, -52372.24, -69996.59, -43766.50, -44628.27, -69704.07, -59200.29, 0.000, 0.000, 0.000, 13:05:12.763, 1584014712763
223, 21631.15, 9081.38, -52426.60, -70401.89, -43591.73, -45882.96, -69139.35, -58066.14, 0.000, 0.000, 0.000, 13:05:12.763, 1584014712763
224, 14838.52, 7085.48, -52414.37, -70788.02, -42761.95, -48145.23, -68106.73, -61936.50, 0.000, 0.000, 0.000, 13:05:12.763, 1584014712763
225, 7238.72, 5505.95, -52364.32, -70648.97, -42514.16, -48768.87, -68094.30, -66407.70, 0.000, 0.000, 0.000, 13:05:12.763, 1584014712763
226, 8864.05, 6589.83, -52413.30, -70242.73, -43134.71, -46661.25, -69035.15, -64460.93, 0.000, 0.000, 0.000, 13:05:12.763, 1584014712763
227, 18366.58, 8979.46, -52370.18, -69990.38, -43785.66, -44604.65, -69704.78, -59134.49, 0.000, 0.000, 0.000, 13:05:12.763, 1584014712763
228, 21619.81, 9086.99, -52424.20, -70396.03, -43627.50, -45888.75, -69149.48, -58043.03, 0.000, 0.000, 0.000, 13:05:12.764, 1584014712764
229, 14777.25, 7078.77, -52411.31, -70783.59, -42781.50, -48162.57, -68106.63, -61974.03, 0.028, 0.880, 0.426, 13:05:12.764, 1584014712764
230, 7202.92, 5499.94, -52367.92, -70643.36, -42501.55, -48764.89, -68082.31, -66435.35, 0.000, 0.000, 0.000, 13:05:12.764, 1584014712764
231, 8863.16, 6592.67, -52422.39, -70237.09, -43130.53, -46650.44, -69038.63, -64453.09, 0.000, 0.000, 0.000, 13:05:12.764, 1584014712764
232, 18381.56, 8987.73, -52379.72, -69986.93, -43796.32, -44590.63, -69719.38, -59103.29, 0.000, 0.000, 0.000, 13:05:12.764, 1584014712764
233, 21605.44, 9082.72, -52435.49, -70398.07, -43636.64, -45902.10, -69161.41, -58039.25, 0.000, 0.000, 0.000, 13:05:12.764, 1584014712764
234, 14742.25, 7065.97, -52417.10, -70786.56, -42774.44, -48184.75, -68105.36, -61994.06, 0.000, 0.000, 0.000, 13:05:12.764, 1584014712764
235, 7199.43, 5496.72, -52374.14, -70640.77, -42468.27, -48772.02, -68073.22, -66435.22, 0.000, 0.000, 0.000, 13:05:12.764, 1584014712764
236, 8881.44, 6598.82, -52427.04, -70234.12, -43108.85, -46642.86, -69040.27, -64435.65, 0.000, 0.000, 0.000, 13:05:12.764, 1584014712764
237, 18397.45, 8998.99, -52381.02, -69984.12, -43809.42, -44583.46, -69738.98, -59090.90, 0.000, 0.000, 0.000, 13:05:12.764, 1584014712764
238, 21593.84, 9090.54, -52427.49, -70397.20, -43654.65, -45892.87, -69168.95, -58044.71, 0.000, 0.000, 0.000, 13:05:12.764, 1584014712764
239, 14761.90, 7071.67, -52405.72, -70792.04, -42754.41, -48172.61, -68086.67, -61979.64, 0.028, 0.880, 0.430, 13:05:12.764, 1584014712764
240, 7235.35, 5500.90, -52364.66, -70650.15, -42451.41, -48766.54, -68065.06, -66421.45, 0.000, 0.000, 0.000, 13:05:12.764, 1584014712764
241, 8891.17, 6597.85, -52419.49, -70240.58, -43115.60, -46653.77, -69059.29, -64452.17, 0.000, 0.000, 0.000, 13:05:12.764, 1584014712764
242, 18346.42, 8980.46, -52371.70, -69989.59, -43829.73, -44600.07, -69770.43, -59145.30, 0.000, 0.000, 0.000, 13:05:12.764, 1584014712764
243, 21565.37, 9074.76, -52421.03, -70400.13, -43642.61, -45881.78, -69178.47, -58050.96, 0.000, 0.000, 0.000, 13:05:12.764, 1584014712764
244, 14782.26, 7072.90, -52402.12, -70787.34, -42717.65, -48144.43, -68077.91, -61943.50, 0.000, 0.000, 0.000, 13:05:12.764, 1584014712764
245, 7294.09, 5509.77, -52362.29, -70646.64, -42407.76, -48749.53, -68052.79, -66379.00, 0.000, 0.000, 0.000, 13:05:12.764, 1584014712764
246, 8943.07, 6596.74, -52419.38, -70243.46, -43089.85, -46651.02, -69060.14, -64435.41, 0.000, 0.000, 0.000, 13:05:12.764, 1584014712764
247, 18339.45, 8975.41, -52374.79, -69991.89, -43852.82, -44615.89, -69800.52, -59176.82, 0.000, 0.000, 0.000, 13:05:12.764, 1584014712764
248, 21535.50, 9071.75, -52410.52, -70400.44, -43676.56, -45883.75, -69191.74, -58077.18, 0.000, 0.000, 0.000, 13:05:12.764, 1584014712764
249, 14821.06, 7082.24, -52385.87, -70785.55, -42710.41, -48130.90, -68055.00, -61909.43, 0.034, 0.886, 0.424, 13:05:12.764, 1584014712764
250, 7353.21, 5522.85, -52346.44, -70641.48, -42399.40, -48752.59, -68030.10, -66349.70, 0.000, 0.000, 0.000, 13:05:12.764, 1584014712764
251, 8945.41, 6602.28, -52408.74, -70236.58, -43117.27, -46674.26, -69065.57, -64463.23, 0.000, 0.000, 0.000, 13:05:12.764, 1584014712764
252, 18265.49, 8969.33, -52363.09, -69979.11, -43906.74, -44632.10, -69815.34, -59240.84, 0.000, 0.000, 0.000, 13:05:12.764, 1584014712764
253, 21479.96, 9075.55, -52406.57, -70385.28, -43701.05, -45870.92, -69178.36, -58080.20, 0.000, 0.000, 0.000, 13:05:12.764, 1584014712764
254, 14844.06, 7095.65, -52386.25, -70776.87, -42683.34, -48104.77, -68007.73, -61842.43, 0.000, 0.000, 0.000, 13:05:12.764, 1584014712764
255, 7407.41, 5540.35, -52349.88, -70634.62, -42368.65, -48754.92, -68001.96, -66296.88, 0.000, 0.000, 0.000, 13:05:12.764, 1584014712764
0, 8961.71, 6609.25, -52407.17, -70230.38, -43114.37, -46675.09, -69066.46, -64465.69, 0.000, 0.000, 0.000, 13:05:12.764, 1584014712764
1, 18272.04, 8968.62, -52365.46, -69980.09, -43909.53, -44632.45, -69827.48, -59248.57, 0.000, 0.000, 0.000, 13:05:12.765, 1584014712765
2, 21486.40, 9070.36, -52402.48, -70388.01, -43695.80, -45862.71, -69180.14, -58072.07, 0.000, 0.000, 0.000, 13:05:12.765, 1584014712765
3, 14864.58, 7087.20, -52384.84, -70782.77, -42652.80, -48100.21, -67997.91, -61835.41, 0.036, 0.884, 0.424, 13:05:12.765, 1584014712765
4, 7444.61, 5530.29, -52355.81, -70646.73, -42325.55, -48746.02, -67991.23, -66284.34, 0.000, 0.000, 0.000, 13:05:12.765, 1584014712765
5, 8983.34, 6605.14, -52418.80, -70236.60, -43107.44, -46683.56, -69080.84, -64466.72, 0.000, 0.000, 0.000, 13:05:12.765, 1584014712765
6, 18263.79, 8974.69, -52374.34, -69975.62, -43945.23, -44640.34, -69857.34, -59266.27, 0.000, 0.000, 0.000, 13:05:12.765, 1584014712765
7, 21450.79, 9074.18, -52409.74, -70385.10, -43721.96, -45865.96, -69193.13, -58106.02, 0.000, 0.000, 0.000, 13:05:12.765, 1584014712765
8, 14835.59, 7091.90, -52388.00, -70782.30, -42643.42, -48097.31, -67984.88, -61862.52, 0.000, 0.000, 0.000, 13:05:12.765, 1584014712765
9, 7481.87, 5534.45, -52358.40, -70650.04, -42257.13, -48726.58, -67946.04, -66247.41, 0.000, 0.000, 0.000, 13:05:12.765, 1584014712765
10, 9044.37, 6619.56, -52422.71, -70233.41, -43053.86, -46666.91, -69054.04, -64406.75, 0.000, 0.000, 0.000, 13:05:12.765, 1584014712765
11, 18343.12, 8989.87, -52377.76, -69972.34, -43905.84, -44616.47, -69833.69, -59198.39, 0.000, 0.000, 0.000, 13:05:12.765, 1584014712765
12, 21517.38, 9079.81, -52413.25, -70386.29, -43689.01, -45857.04, -69163.58, -58072.13, 0.026, 0.884, 0.414, 13:05:12.765, 1584014712765
13, 14889.79, 7092.01, -52387.44, -70782.90, -42612.23, -48098.94, -67947.09, -61858.52, 0.000, 0.000, 0.000, 13:05:12.765, 1584014712765
14, 7505.36, 5540.04, -52349.57, -70643.42, -42258.25, -48729.21, -67920.71, -66263.47, 0.000, 0.000, 0.000, 13:05:12.765, 1584014712765
15, 9086.81, 6620.05, -52415.29, -70232.11, -43050.20, -46659.24, -69016.46, -64392.29, 0.000, 0.000, 0.000, 13:05:12.765, 1584014712765
16, 18371.10, 8987.66, -52374.20, -69975.91, -43933.11, -44618.66, -69810.71, -59190.82, 0.000, 0.000, 0.000, 13:05:12.765, 1584014712765
17, 21538.99, 9077.51, -52408.13, -70390.47, -43714.96, -45860.32, -69133.74, -58074.88, 0.000, 0.000, 0.000, 13:05:12.765, 1584014712765
18, 14892.61, 7092.83, -52383.14, -70781.18, -42633.29, -48099.81, -67916.89, -61878.14, 0.000, 0.000, 0.000, 13:05:12.765, 1584014712765
19, 7516.29, 5538.76, -52355.67, -70645.79, -42257.04, -48731.05, -67891.50, -66266.69, 0.000, 0.000, 0.000, 13:05:12.765, 1584014712765
20, 9107.24, 6623.34, -52416.27, -70233.58, -43044.34, -46655.58, -69002.20, -64384.36, 0.000, 0.000, 0.000, 13:05:12.765, 1584014712765
21, 18411.62, 8997.67, -52377.09, -69974.91, -43930.14, -44614.68, -69814.38, -59177.63, 0.000, 0.000, 0.000, 13:05:12.765, 1584014712765
22, 21529.06, 9081.67, -52404.67, -70383.12, -43727.36, -45863.61, -69154.26, -58105.73, 0.030, 0.882, 0.426, 13:05:12.765, 1584014712765
23, 14876.63, 7084.85, -52374.02, -70780.13, -42616.91, -48103.16, -67926.32, -61912.07, 0.000, 0.000, 0.000, 13:05:12.765, 1584014712765
24, 7533.05, 5530.13, -52350.42, -70649.03, -42212.41, -48722.24, -67896.57, -66267.13, 0.000, 0.000, 0.000, 13:05:12.765, 1584014712765
25, 9134.44, 6616.43, -52422.91, -70238.08, -43007.97, -46652.87, -69030.09, -64375.75, 0.000, 0.000, 0.000, 13:05:12.766, 1584014712766
26, 18439.50, 8998.72, -52373.62, -69972.83, -43902.80, -44597.94, -69849.69, -59153.98, 0.000, 0.000, 0.000, 13:05:12.766, 1584014712766
27, 21550.28, 9075.23, -52401.81, -70391.01, -43691.49, -45859.23, -69178.34, -58084.07, 0.000, 0.000, 0.000, 13:05:12.766, 1584014712766
28, 14887.18, 7067.20, -52380.24, -70797.38, -42578.08, -48112.78, -67942.84, -61911.76, 0.000, 0.000, 0.000, 13:05:12.766, 1584014712766
29, 7533.63, 5518.80, -52359.00, -70660.79, -42200.34, -48725.06, -67915.41, -66276.09, 0.000, 0.000, 0.000, 13:05:12.766, 1584014712766
30, 9150.11, 6616.29, -52424.65, -70242.05, -43014.14, -46638.61, -69040.38, -64363.93, 0.000, 0.000, 0.000, 13:05:12.766, 1584014712766
31, 18494.95, 9004.11, -52383.05, -69979.82, -43914.83, -44577.11, -69850.34, -59102.05, 0.000, 0.000, 0.000, 13:05:12.766, 1584014712766
32, 21580.07, 9072.89, -52415.42, -70398.98, -43710.71, -45865.46, -69177.08, -58059.66, 0.040, 0.890, 0.424, 13:05:12.766, 1584014712766
33, 14898.58, 7059.08, -52387.21, -70800.63, -42576.09, -48123.37, -67923.53, -61917.73, 0.000, 0.000, 0.000, 13:05:12.766, 1584014712766
34, 7543.20, 5514.71, -52360.68, -70655.80, -42186.64, -48726.18, -67893.94, -66288.05, 0.000, 0.000, 0.000, 13:05:12.767, 1584014712767
35, 9166.03, 6616.09, -52429.90, -70237.16, -43010.66, -46633.94, -69030.14, -64363.21, 0.000, 0.000, 0.000, 13:05:12.767, 1584014712767
36, 18505.08, 9011.08, -52381.11, -69970.26, -43927.05, -44566.98, -69850.63, -59089.74, 0.000, 0.000, 0.000, 13:05:12.767, 1584014712767
37, 21567.29, 9069.42, -52412.27, -70396.17, -43723.05, -45860.12, -69169.26, -58063.21, 0.000, 0.000, 0.000, 13:05:12.767, 1584014712767
38, 14863.06, 7048.71, -52388.89, -70800.51, -42603.92, -48131.55, -67917.07, -61953.36, 0.000, 0.000, 0.000, 13:05:12.767, 1584014712767
39, 7541.28, 5508.19, -52360.37, -70656.48, -42201.30, -48717.57, -67872.88, -66302.85, 0.000, 0.000, 0.000, 13:05:12.767, 1584014712767
40, 9166.34, 6613.75, -52429.01, -70236.98, -43030.88, -46632.24, -69017.80, -64370.94, 0.000, 0.000, 0.000, 13:05:12.767, 1584014712767
41, 18489.65, 9007.26, -52385.96, -69976.41, -43951.73, -44564.50, -69843.92, -59092.76, 0.000, 0.000, 0.000, 13:05:12.767, 1584014712767
42, 21535.14, 9071.25, -52411.62, -70398.43, -43745.54, -45867.39, -69160.52, -58071.98, 0.040, 0.896, 0.428, 13:05:12.767, 1584014712767
43, 14818.83, 7049.34, -52386.32, -70799.98, -42624.80, -48139.22, -67913.63, -61982.32, 0.000, 0.000, 0.000, 13:05:12.767, 1584014712767
44, 7510.07, 5506.58, -52364.55, -70656.41, -42210.57, -48712.23, -67873.62, -66322.85, 0.000, 0.000, 0.000, 13:05:12.767, 1584014712767
45, 9153.29, 6617.30, -52437.46, -70237.23, -43029.36, -46615.86, -69024.62, -64365.33, 0.000, 0.000, 0.000, 13:05:12.767, 1584014712767
46, 18442.18, 9012.96, -52397.96, -69973.52, -43983.63, -44555.68, -69879.04, -59089.38, 0.000, 0.000, 0.000, 13:05:12.767, 1584014712767
47, 21452.06, 9063.03, -52419.27, -70398.91, -43770.57, -45859.81, -69193.35, -58073.50, 0.000, 0.000, 0.000, 13:05:12.767, 1584014712767
48, 14753.22, 7039.21, -52380.89, -70801.25, -42614.32, -48133.61, -67916.60, -61983.98, 0.000, 0.000, 0.000, 13:05:12.767, 1584014712767
49, 7473.71, 5500.76, -52359.70, -70655.00, -42183.48, -48711.87, -67869.13, -66328.48, 0.000, 0.000, 0.000, 13:05:12.767, 1584014712767
50, 9112.83, 6613.57, -52435.65, -70234.48, -43022.01, -46614.09, -69034.86, -64371.01, 0.000, 0.000, 0.000, 13:05:12.767, 1584014712767
51, 18399.53, 9004.42, -52398.70, -69974.08, -43971.00, -44547.20, -69883.76, -59074.12, 0.000, 0.000, 0.000, 13:05:12.767, 1584014712767
52, 21418.47, 9060.53, -52414.32, -70397.80, -43747.28, -45847.38, -69183.25, -58053.04, 0.032, 0.890, 0.420, 13:05:12.767, 1584014712767
53, 14772.85, 7036.62, -52385.54, -70808.23, -42558.43, -48124.40, -67893.35, -61955.59, 0.000, 0.000, 0.000, 13:05:12.768, 1584014712768
54, 7505.16, 5501.30, -52366.58, -70655.83, -42151.16, -48707.85, -67860.30, -66316.38, 0.000, 0.000, 0.000, 13:05:12.768, 1584014712768
55, 9143.72, 6614.91, -52445.26, -70237.05, -43005.45, -46606.22, -69029.43, -64346.69, 0.000, 0.000, 0.000, 13:05:12.768, 1584014712768
56, 18425.26, 9017.83, -52409.45, -69974.68, -43972.47, -44532.50, -69884.20, -59025.93, 0.000, 0.000, 0.000, 13:05:12.768, 1584014712768
57, 21399.58, 9066.07, -52427.27, -70399.74, -43775.80, -45853.37, -69187.97, -58038.56, 0.000, 0.000, 0.000, 13:05:12.768, 1584014712768
58, 14713.59, 7031.59, -52386.63, -70807.91, -42591.83, -48143.46, -67885.40, -61990.06, 0.000, 0.000, 0.000, 13:05:12.768, 1584014712768
59, 7471.41, 5496.88, -52366.49, -70660.01, -42158.45, -48712.32, -67835.15, -66341.05, 0.000, 0.000, 0.000, 13:05:12.768, 1584014712768
60, 9111.40, 6612.92, -52446.36, -70238.90, -43024.67, -46602.45, -69017.91, -64361.42, 0.000, 0.000, 0.000, 13:05:12.768, 1584014712768
61, 18385.20, 9010.39, -52411.08, -69979.91, -43997.46, -44527.98, -69882.95, -59023.71, 0.026, 0.888, 0.418, 13:05:12.768, 1584014712768
62, 21323.47, 9054.54, -52419.58, -70403.86, -43800.05, -45864.93, -69182.20, -58066.05, 0.000, 0.000, 0.000, 13:05:12.768, 1584014712768
63, 14625.86, 7014.38, -52374.65, -70809.03, -42621.71, -48163.70, -67871.94, -62048.93, 0.000, 0.000, 0.000, 13:05:12.768, 1584014712768
64, 7431.28, 5482.91, -52357.48, -70658.69, -42172.82, -48706.17, -67816.40, -66368.38, 0.000, 0.000, 0.000, 13:05:12.768, 1584014712768
65, 9089.92, 6614.15, -52445.44, -70231.88, -43049.82, -46591.43, -69023.77, -64359.14, 0.000, 0.000, 0.000, 13:05:12.768, 1584014712768
66, 18324.81, 9014.10, -52414.01, -69971.91, -44059.62, -44522.24, -69918.80, -59028.74, 0.000, 0.000, 0.000, 13:05:12.768, 1584014712768
67, 21269.92, 9044.61, -52419.96, -70408.44, -43833.58, -45865.46, -69204.02, -58063.95, 0.000, 0.000, 0.000, 13:05:12.768, 1584014712768
68, 14642.14, 7008.37, -52376.93, -70819.84, -42605.15, -48158.04, -67871.94, -62015.89, 0.000, 0.000, 0.000, 13:05:12.768, 1584014712768
69, 7460.77, 5487.31, -52359.00, -70662.78, -42171.39, -48706.73, -67833.16, -66348.67, 0.000, 0.000, 0.000, 13:05:12.768, 1584014712768
70, 9101.76, 6618.49, -52439.23, -70235.21, -43066.38, -46591.14, -69052.63, -64351.54, 0.000, 0.000, 0.000, 13:05:13.243, 1584014713243
71, 18319.15, 9022.64, -52403.20, -69969.48, -44072.90, -44509.74, -69947.68, -59010.82, 0.032, 0.884, 0.420, 13:05:13.244, 1584014713244
72, 21240.28, 9056.73, -52405.29, -70402.09, -43860.36, -45860.28, -69233.43, -58055.03, 0.000, 0.000, 0.000, 13:05:13.244, 1584014713244
73, 14617.06, 7017.24, -52357.71, -70814.46, -42619.70, -48154.62, -67884.93, -62021.84, 0.000, 0.000, 0.000, 13:05:13.244, 1584014713244
74, 7497.11, 5494.77, -52351.52, -70665.09, -42149.44, -48701.90, -67831.30, -66328.84, 0.000, 0.000, 0.000, 13:05:13.244, 1584014713244
75, 9094.14, 6624.56, -52433.17, -70230.16, -43091.23, -46600.05, -69080.43, -64368.44, 0.000, 0.000, 0.000, 13:05:13.244, 1584014713244
76, 18264.41, 9025.79, -52394.79, -69963.35, -44120.04, -44515.33, -69977.70, -59035.13, 0.000, 0.000, 0.000, 13:05:13.244, 1584014713244
77, 21175.91, 9057.69, -52397.54, -70394.07, -43893.28, -45855.03, -69238.93, -58065.18, 0.000, 0.000, 0.000, 13:05:13.244, 1584014713244
78, 14589.41, 7021.71, -52355.45, -70808.29, -42635.30, -48151.87, -67868.77, -62012.57, 0.000, 0.000, 0.000, 13:05:13.244, 1584014713244
79, 7473.55, 5497.48, -52340.70, -70657.88, -42168.84, -48702.01, -67811.37, -66330.12, 0.000, 0.000, 0.000, 13:05:13.244, 1584014713244
80, 9094.30, 6616.74, -52434.91, -70234.30, -43081.00, -46602.04, -69057.27, -64348.39, 0.000, 0.000, 0.000, 13:05:13.244, 1584014713244
81, 18187.66, 9011.37, -52398.10, -69962.05, -44154.13, -44529.17, -69985.70, -59061.33, 0.040, 0.886, 0.416, 13:05:13.244, 1584014713244
82, 21111.49, 9045.04, -52393.58, -70397.98, -43901.11, -45855.34, -69215.95, -58068.62, 0.000, 0.000, 0.000, 13:05:13.244, 1584014713244
83, 14590.08, 7007.90, -52350.89, -70819.96, -42595.54, -48150.95, -67818.37, -61993.99, 0.000, 0.000, 0.000, 13:05:13.244, 1584014713244
84, 7517.45, 5487.04, -52346.04, -70668.28, -42126.96, -48710.73, -67775.74, -66314.85, 0.000, 0.000, 0.000, 13:05:13.244, 1584014713244
85, 9098.25, 6608.07, -52437.01, -70238.86, -43073.73, -46608.06, -69052.96, -64371.14, 0.000, 0.000, 0.000, 13:05:13.244, 1584014713244
86, 18102.65, 8985.22, -52404.85, -69972.65, -44164.18, -44552.39, -70007.25, -59130.89, 0.000, 0.000, 0.000, 13:05:13.244, 1584014713244
87, 21009.16, 9022.57, -52396.98, -70403.86, -43907.18, -45856.55, -69225.56, -58111.43, 0.000, 0.000, 0.000, 13:05:13.244, 1584014713244
88, 14559.21, 7006.80, -52352.30, -70820.12, -42586.09, -48140.14, -67812.75, -61978.12, 0.000, 0.000, 0.000, 13:05:13.244, 1584014713244
89, 7520.71, 5499.67, -52340.81, -70662.04, -42119.89, -48706.04, -67778.84, -66299.01, 0.000, 0.000, 0.000, 13:05:13.244, 1584014713244
90, 9105.97, 6620.01, -52435.61, -70229.67, -43072.35, -46603.18, -69065.30, -64349.53, 0.000, 0.000, 0.000, 13:05:13.244, 1584014713244
91, 18108.80, 9009.61, -52403.82, -69956.66, -44191.99, -44530.98, -70035.10, -59076.69, 0.038, 0.888, 0.424, 13:05:13.244, 1584014713244
92, 21001.34, 9041.64, -52383.55, -70386.94, -43924.21, -45846.80, -69240.92, -58082.39, 0.000, 0.000, 0.000, 13:05:13.244, 1584014713244
93, 14584.04, 7019.19, -52337.21, -70805.90, -42552.63, -48134.97, -67796.05, -61967.50, 0.000, 0.000, 0.000, 13:05:13.244, 1584014713244
94, 7558.76, 5511.92, -52333.86, -70650.95, -42086.77, -48705.10, -67762.73, -66303.70, 0.000, 0.000, 0.000, 13:05:13.244, 1584014713244
95, 9120.58, 6629.44, -52438.44, -70226.34, -43067.47, -46608.55, -69069.08, -64368.93, 0.000, 0.000, 0.000, 13:05:13.244, 1584014713244
96, 18047.42, 9006.61, -52409.68, -69952.84, -44208.38, -44548.39, -70052.02, -59132.05, 0.000, 0.000, 0.000, 13:05:13.244, 1584014713244
97, 20954.11, 9042.60, -52390.79, -70385.35, -43921.55, -45842.51, -69232.38, -58089.63, 0.000, 0.000, 0.000, 13:05:13.244, 1584014713244
98, 14625.06, 7035.88, -52341.05, -70802.48, -42520.64, -48112.08, -67764.41, -61904.74, 0.000, 0.000, 0.000, 13:05:13.244, 1584014713244
99, 7670.18, 5531.52, -52342.00, -70653.99, -42039.74, -48691.91, -67730.59, -66218.18, 0.000, 0.000, 0.000, 13:05:13.245, 1584014713245
100, 9197.00, 6638.54, -52447.25, -70228.53, -43042.86, -46618.05, -69059.65, -64328.74, 0.028, 0.882, 0.428, 13:05:13.245, 1584014713245
101, 18043.33, 9002.70, -52413.81, -69953.89, -44220.67, -44559.81, -70061.38, -59136.50, 0.000, 0.000, 0.000, 13:05:13.245, 1584014713245
102, 20940.50, 9039.74, -52384.42, -70386.45, -43925.20, -45844.95, -69225.90, -58083.04, 0.000, 0.000, 0.000, 13:05:13.245, 1584014713245
103, 14652.26, 7030.65, -52330.82, -70809.14, -42484.88, -48116.93, -67728.11, -61892.13, 0.000, 0.000, 0.000, 13:05:13.245, 1584014713245
104, 7752.99, 5527.74, -52337.52, -70660.95, -41982.61, -48692.27, -67692.52, -66189.86, 0.000, 0.000, 0.000, 13:05:13.245, 1584014713245
105, 9248.46, 6639.83, -52441.26, -70225.76, -43032.85, -46613.87, -69054.95, -64326.84, 0.000, 0.000, 0.000, 13:05:13.245, 1584014713245
106, 18073.91, 8999.26, -52411.55, -69955.91, -44221.14, -44545.17, -70058.26, -59128.50, 0.000, 0.000, 0.000, 13:05:13.245, 1584014713245
107, 20961.94, 9034.69, -52381.18, -70385.66, -43927.59, -45831.40, -69219.13, -58071.73, 0.000, 0.000, 0.000, 13:05:13.245, 1584014713245
108, 14675.66, 7027.95, -52320.18, -70805.77, -42482.48, -48109.20, -67712.75, -61895.64, 0.000, 0.000, 0.000, 13:05:13.245, 1584014713245
109, 7806.17, 5534.02, -52328.41, -70655.31, -41961.84, -48680.89, -67667.02, -66183.78, 0.000, 0.000, 0.000, 13:05:13.245, 1584014713245
110, 9347.63, 6643.36, -52441.80, -70227.70, -42993.38, -46597.17, -69034.27, -64286.36, 0.026, 0.886, 0.426, 13:05:13.245, 1584014713245
111, 18125.52, 8999.73, -52416.25, -69957.88, -44227.39, -44558.60, -70081.63, -59121.43, 0.000, 0.000, 0.000, 13:05:13.245, 1584014713245
112, 20967.14, 9029.84, -52374.43, -70387.56, -43936.69, -45840.32, -69230.30, -58102.15, 0.000, 0.000, 0.000, 13:05:13.245, 1584014713245
113, 14723.52, 7022.94, -52318.82, -70810.84, -42458.28, -48107.95, -67699.45, -61909.01, 0.000, 0.000, 0.000, 13:05:13.245, 1584014713245
114, 7895.71, 5527.83, -52330.28, -70660.77, -41917.75, -48670.41, -67649.41, -66177.50, 0.000, 0.000, 0.000, 13:05:13.246, 1584014713246
115, 9425.37, 6645.17, -52445.71, -70224.89, -42971.43, -46590.11, -69035.95, -64280.87, 0.000, 0.000, 0.000, 13:05:13.246, 1584014713246
116, 18171.54, 9011.17, -52419.18, -69947.79, -44240.89, -44545.15, -70097.26, -59112.52, 0.000, 0.000, 0.000, 13:05:13.246, 1584014713246
117, 21000.54, 9036.99, -52377.96, -70378.45, -43935.53, -45834.08, -69227.66, -58094.04, 0.000, 0.000, 0.000, 13:05:13.246, 1584014713246
118, 14776.49, 7019.83, -52321.61, -70807.77, -42412.63, -48109.09, -67664.43, -61910.35, 0.000, 0.000, 0.000, 13:05:13.246, 1584014713246
119, 7971.15, 5525.49, -52334.86, -70658.84, -41861.26, -48669.51, -67614.29, -66176.27, 0.000, 0.000, 0.000, 13:05:13.246, 1584014713246
120, 9479.89, 6647.94, -52452.48, -70221.98, -42963.67, -46594.94, -69041.77, -64285.70, 0.034, 0.886, 0.430, 13:05:13.246, 1584014713246
121, 18231.63, 9016.87, -52424.27, -69944.95, -44248.16, -44532.96, -70108.45, -59080.35, 0.000, 0.000, 0.000, 13:05:13.246, 1584014713246
122, 21044.90, 9033.97, -52375.99, -70378.24, -43936.91, -45833.28, -69225.63, -58070.19, 0.000, 0.000, 0.000, 13:05:13.246, 1584014713246
123, 14814.20, 7009.57, -52313.07, -70810.13, -42386.86, -48118.48, -67646.55, -61917.32, 0.000, 0.000, 0.000, 13:05:13.246, 1584014713246
124, 8007.69, 5517.10, -52329.03, -70657.57, -41827.85, -48672.06, -67598.09, -66192.05, 0.000, 0.000, 0.000, 13:05:13.246, 1584014713246
125, 9546.92, 6650.69, -52450.51, -70218.52, -42932.25, -46576.79, -69031.82, -64261.51, 0.000, 0.000, 0.000, 13:05:13.246, 1584014713246
126, 18333.93, 9035.27, -52425.37, -69940.48, -44236.34, -44510.55, -70117.45, -59014.95, 0.000, 0.000, 0.000, 13:05:13.246, 1584014713246
127, 21106.21, 9042.38, -52374.67, -70377.80, -43936.38, -45836.07, -69235.30, -58055.57, 0.000, 0.000, 0.000, 13:05:13.246, 1584014713246
128, 14854.59, 7006.35, -52308.47, -70807.91, -42363.44, -48130.88, -67636.58, -61948.24, 0.000, 0.000, 0.000, 13:05:13.246, 1584014713246
129, 8088.56, 5517.93, -52324.07, -70652.23, -41763.29, -48652.64, -67566.80, -66198.82, 0.000, 0.000, 0.000, 13:05:13.246, 1584014713246
130, 9650.95, 6662.03, -52451.83, -70211.45, -42888.91, -46553.03, -69018.32, -64243.29, 0.028, 0.884, 0.430, 13:05:13.246, 1584014713246
131, 18391.89, 9044.86, -52427.91, -69935.55, -44247.15, -44500.96, -70133.52, -59015.91, 0.000, 0.000, 0.000, 13:05:13.246, 1584014713246
132, 21124.03, 9037.55, -52373.46, -70379.85, -43949.05, -45842.49, -69241.03, -58094.24, 0.000, 0.000, 0.000, 13:05:13.246, 1584014713246
133, 14893.48, 6998.76, -52302.59, -70813.14, -42354.18, -48137.45, -67619.44, -61988.25, 0.000, 0.000, 0.000, 13:05:13.246, 1584014713246
134, 8160.87, 5520.46, -52317.00, -70651.78, -41745.66, -48645.13, -67542.23, -66216.39, 0.000, 0.000, 0.000, 13:05:13.246, 1584014713246
135, 9745.16, 6679.39, -52446.82, -70206.40, -42890.11, -46534.00, -69009.27, -64224.90, 0.000, 0.000, 0.000, 13:05:13.246, 1584014713246
136, 18494.48, 9068.13, -52425.10, -69933.51, -44268.97, -44473.82, -70138.52, -58963.86, 0.000, 0.000, 0.000, 13:05:13.246, 1584014713246
137, 21212.30, 9042.08, -52369.84, -70385.24, -43937.85, -45836.59, -69223.13, -58067.75, 0.000, 0.000, 0.000, 13:05:13.246, 1584014713246
138, 14947.80, 6981.70, -52297.76, -70823.22, -42311.54, -48168.21, -67586.11, -62042.88, 0.000, 0.000, 0.000, 13:05:13.246, 1584014713246
139, 8195.96, 5501.26, -52313.72, -70649.75, -41696.80, -48648.48, -67513.82, -66301.40, 0.032, 0.876, 0.432, 13:05:13.246, 1584014713246
140, 9855.31, 6681.41, -52447.63, -70203.07, -42827.42, -46497.08, -68985.95, -64212.56, 0.000, 0.000, 0.000, 13:05:13.246, 1584014713246
141, 18658.41, 9093.83, -52425.12, -69929.58, -44229.14, -44437.52, -70133.24, -58873.80, 0.000, 0.000, 0.000, 13:05:13.246, 1584014713246
142, 21342.43, 9053.62, -52360.99, -70385.57, -43896.81, -45841.28, -69210.88, -58024.97, 0.000, 0.000, 0.000, 13:05:13.246, 1584014713246
143, 15070.91, 6976.74, -52293.11, -70829.81, -42239.34, -48189.24, -67554.50, -62054.79, 0.000, 0.000, 0.000, 13:05:13.246, 1584014713246
144, 8307.50, 5499.71, -52309.34, -70649.73, -41642.46, -48658.16, -67496.21, -66337.54, 0.000, 0.000, 0.000, 13:05:13.246, 1584014713246
145, 9982.11, 6692.87, -52446.04, -70198.38, -42806.20, -46479.94, -68984.37, -64203.73, 0.000, 0.000, 0.000, 13:05:13.247, 1584014713247
146, 18765.61, 9117.10, -52428.00, -69921.66, -44260.90, -44423.82, -70160.42, -58835.73, 0.000, 0.000, 0.000, 13:05:13.247, 1584014713247
147, 21347.84, 9066.54, -52359.27, -70378.96, -43980.39, -45852.50, -69256.88, -58037.71, 0.000, 0.000, 0.000, 13:05:13.247, 1584014713247
148, 15008.30, 6979.65, -52289.09, -70826.98, -42330.49, -48207.50, -67598.87, -62110.98, 0.000, 0.000, 0.000, 13:05:13.247, 1584014713247
149, 8258.30, 5501.41, -52307.17, -70647.70, -41706.95, -48653.18, -67520.35, -66366.48, 0.034, 0.874, 0.436, 13:05:13.247, 1584014713247
150, 9915.68, 6691.89, -52448.93, -70202.83, -42885.04, -46479.78, -69018.98, -64218.28, 0.000, 0.000, 0.000, 13:05:13.247, 1584014713247
151, 18677.52, 9110.88, -52442.02, -69934.65, -44346.11, -44421.57, -70198.58, -58834.59, 0.000, 0.000, 0.000, 13:05:13.247, 1584014713247
152, 21232.97, 9054.54, -52376.15, -70390.94, -44068.86, -45860.66, -69291.43, -58050.79, 0.000, 0.000, 0.000, 13:05:13.247, 1584014713247
153, 14901.53, 6962.99, -52298.36, -70836.50, -42398.89, -48213.02, -67608.80, -62141.47, 0.000, 0.000, 0.000, 13:05:13.247, 1584014713247
154, 8219.18, 5486.32, -52319.87, -70664.41, -41717.25, -48656.10, -67505.64, -66374.93, 0.000, 0.000, 0.000, 13:05:13.247, 1584014713247
155, 9879.47, 6685.45, -52463.57, -70211.19, -42898.52, -46489.32, -69021.76, -64227.82, 0.000, 0.000, 0.000, 13:05:13.247, 1584014713247
156, 18591.15, 9100.45, -52449.02, -69940.28, -44376.19, -44433.07, -70216.75, -58869.60, 0.000, 0.000, 0.000, 13:05:13.247, 1584014713247
157, 21144.17, 9044.54, -52373.69, -70395.95, -44073.91, -45860.23, -69290.05, -58082.77, 0.000, 0.000, 0.000, 13:05:13.247, 1584014713247
158, 14876.25, 6960.80, -52291.28, -70843.23, -42369.00, -48211.88, -67585.99, -62146.00, 0.000, 0.000, 0.000, 13:05:13.247, 1584014713247
159, 8238.70, 5492.07, -52316.76, -70664.30, -41683.54, -48645.02, -67484.90, -66367.02, 0.038, 0.880, 0.436, 13:05:13.247, 1584014713247
160, 9887.67, 6691.62, -52463.03, -70207.84, -42893.22, -46471.15, -69021.70, -64223.45, 0.000, 0.000, 0.000, 13:05:13.247, 1584014713247
161, 18550.67, 9104.31, -52450.27, -69933.11, -44408.46, -44419.40, -70238.23, -58866.87, 0.000, 0.000, 0.000, 13:05:13.247, 1584014713247
162, 21087.39, 9045.26, -52368.17, -70393.11, -44094.89, -45850.29, -69300.24, -58076.47, 0.000, 0.000, 0.000, 13:05:13.247, 1584014713247
163, 14833.09, 6958.39, -52284.48, -70839.90, -42365.92, -48211.13, -67588.37, -62157.34, 0.000, 0.000, 0.000, 13:05:13.247, 1584014713247
164, 8232.93, 5490.57, -52309.16, -70661.04, -41664.95, -48637.59, -67479.94, -66372.30, 0.000, 0.000, 0.000, 13:05:13.247, 1584014713247
165, 9905.80, 6698.88, -52460.37, -70202.85, -42879.34, -46463.00, -69021.65, -64207.69, 0.000, 0.000, 0.000, 13:05:13.247, 1584014713247
166, 18504.07, 9111.60, -52450.89, -69923.07, -44445.41, -44423.00, -70269.57, -58874.36, 0.000, 0.000, 0.000, 13:05:13.247, 1584014713247
167, 20994.84, 9046.20, -52360.68, -70378.06, -44143.89, -45843.63, -69322.23, -58099.63, 0.000, 0.000, 0.000, 13:05:13.247, 1584014713247
168, 14796.59, 6959.01, -52274.78, -70829.63, -42368.09, -48190.32, -67573.68, -62151.84, 0.000, 0.000, 0.000, 13:05:13.247, 1584014713247
169, 8241.74, 5492.45, -52305.34, -70655.67, -41648.77, -48614.86, -67462.50, -66354.19, 0.036, 0.876, 0.438, 13:05:13.247, 1584014713247
170, 9912.31, 6697.79, -52461.46, -70201.59, -42871.63, -46445.56, -69023.15, -64188.20, 0.000, 0.000, 0.000, 13:05:13.247, 1584014713247
171, 18496.40, 9116.45, -52447.99, -69924.86, -44445.73, -44403.84, -70277.84, -58846.40, 0.000, 0.000, 0.000, 13:05:13.247, 1584014713247
172, 20976.93, 9045.06, -52359.32, -70392.70, -44146.19, -45848.05, -69332.27, -58087.00, 0.000, 0.000, 0.000, 13:05:13.247, 1584014713247
173, 14813.80, 6952.69, -52268.86, -70848.92, -42345.45, -48210.45, -67561.21, -62152.20, 0.000, 0.000, 0.000, 13:05:13.247, 1584014713247
174, 8303.32, 5496.27, -52294.92, -70664.41, -41605.16, -48633.19, -67436.53, -66353.32, 0.000, 0.000, 0.000, 13:05:13.247, 1584014713247
175, 9965.19, 6699.78, -52455.90, -70208.93, -42848.34, -46459.04, -69010.20, -64188.48, 0.000, 0.000, 0.000, 13:05:13.247, 1584014713247
176, 18525.59, 9107.60, -52457.42, -69939.77, -44446.53, -44423.31, -70281.23, -58836.00, 0.000, 0.000, 0.000, 13:05:13.248, 1584014713248
177, 21003.91, 9038.64, -52352.39, -70395.52, -44145.63, -45857.44, -69321.83, -58074.95, 0.000, 0.000, 0.000, 13:05:13.248, 1584014713248
178, 14879.02, 6949.11, -52258.18, -70850.65, -42330.05, -48218.34, -67542.03, -62143.52, 0.038, 0.878, 0.432, 13:05:13.248, 1584014713248
179, 8417.69, 5492.90, -52295.52, -70674.85, -41576.90, -48632.01, -67418.13, -66338.84, 0.000, 0.000, 0.000, 13:05:13.248, 1584014713248
180, 10085.04, 6704.72, -52460.28, -70212.35, -42817.74, -46460.07, -68999.43, -64176.10, 0.000, 0.000, 0.000, 13:05:13.248, 1584014713248
181, 18607.36, 9117.92, -52457.42, -69933.91, -44426.95, -44413.41, -70281.66, -58828.58, 0.000, 0.000, 0.000, 13:05:13.248, 1584014713248
182, 21095.82, 9050.91, -52354.54, -70391.09, -44110.07, -45843.67, -69310.55, -58052.20, 0.000, 0.000, 0.000, 13:05:13.248, 1584014713248
183, 15042.46, 6967.02, -52257.39, -70844.73, -42254.23, -48198.70, -67499.07, -62098.26, 0.000, 0.000, 0.000, 13:05:13.248, 1584014713248
184, 8611.03, 5519.76, -52282.90, -70659.90, -41504.48, -48626.15, -67376.85, -66311.01, 0.000, 0.000, 0.000, 13:05:13.248, 1584014713248
185, 10274.94, 6725.01, -52446.51, -70202.05, -42763.60, -46453.83, -68964.74, -64158.82, 0.000, 0.000, 0.000, 13:05:13.248, 1584014713248
186, 18760.04, 9125.50, -52451.27, -69930.54, -44392.91, -44413.38, -70255.15, -58828.65, 0.000, 0.000, 0.000, 13:05:13.248, 1584014713248
187, 21260.64, 9055.07, -52344.70, -70390.87, -44064.52, -45837.61, -69267.02, -58039.48, 0.000, 0.000, 0.000, 13:05:13.248, 1584014713248
188, 15236.71, 6967.15, -52245.14, -70845.22, -42191.53, -48206.43, -67443.77, -62092.50, 0.030, 0.890, 0.430, 13:05:13.248, 1584014713248
189, 8890.16, 5523.88, -52282.90, -70661.26, -41415.48, -48616.94, -67310.63, -66265.70, 0.000, 0.000, 0.000, 13:05:13.248, 1584014713248
190, 10572.29, 6737.20, -52449.75, -70195.80, -42690.85, -46444.18, -68914.09, -64112.29, 0.000, 0.000, 0.000, 13:05:13.725, 1584014713725
191, 19047.08, 9144.30, -52450.33, -69919.85, -44333.52, -44395.73, -70202.49, -58776.79, 0.000, 0.000, 0.000, 13:05:13.726, 1584014713726
192, 21558.73, 9072.10, -52349.13, -70385.28, -44003.34, -45824.74, -69220.73, -57988.45, 0.000, 0.000, 0.000, 13:05:13.726, 1584014713726
193, 15535.54, 6984.16, -52245.12, -70839.91, -42140.84, -48196.13, -67414.89, -62065.92, 0.000, 0.000, 0.000, 13:05:13.726, 1584014713726
194, 9194.43, 5541.89, -52282.23, -70654.78, -41369.59, -48597.92, -67291.16, -66238.37, 0.000, 0.000, 0.000, 13:05:13.726, 1584014713726
195, 10889.39, 6757.87, -52454.69, -70193.91, -42644.80, -46433.98, -68894.42, -64062.89, 0.000, 0.000, 0.000, 13:05:13.726, 1584014713726
196, 19329.63, 9161.42, -52454.63, -69919.52, -44309.14, -44408.46, -70200.23, -58744.27, 0.000, 0.000, 0.000, 13:05:13.726, 1584014713726
197, 21788.35, 9082.32, -52337.70, -70383.31, -43995.52, -45856.48, -69218.68, -58014.66, 0.000, 0.000, 0.000, 13:05:13.726, 1584014713726
198, 15792.16, 6990.15, -52233.57, -70844.41, -42111.47, -48229.86, -67388.43, -62095.89, 0.026, 0.880, 0.434, 13:05:13.726, 1584014713726
199, 9502.53, 5550.85, -52272.32, -70663.34, -41327.61, -48622.71, -67257.98, -66230.27, 0.000, 0.000, 0.000, 13:05:13.726, 1584014713726
200, 11209.91, 6767.68, -52447.09, -70203.77, -42604.93, -46457.59, -68869.57, -64031.69, 0.000, 0.000, 0.000, 13:05:13.726, 1584014713726
201, 19595.62, 9167.54, -52455.30, -69928.91, -44306.25, -44429.88, -70201.69, -58737.99, 0.000, 0.000, 0.000, 13:05:13.726, 1584014713726
202, 21951.20, 9080.78, -52349.73, -70392.23, -44049.45, -45871.52, -69259.67, -58044.82, 0.000, 0.000, 0.000, 13:05:13.726, 1584014713726
203, 15888.76, 6987.11, -52244.45, -70853.87, -42198.80, -48233.61, -67447.37, -62135.99, 0.000, 0.000, 0.000, 13:05:13.726, 1584014713726
204, 9589.57, 5552.71, -52279.88, -70667.54, -41408.04, -48618.53, -67299.89, -66238.43, 0.000, 0.000, 0.000, 13:05:13.726, 1584014713726
205, 11276.07, 6772.00, -52452.28, -70203.27, -42676.21, -46445.63, -68893.04, -64023.84, 0.000, 0.000, 0.000, 13:05:13.726, 1584014713726
206, 19642.18, 9172.08, -52461.15, -69932.75, -44360.84, -44419.87, -70208.50, -58729.45, 0.000, 0.000, 0.000, 13:05:13.726, 1584014713726
207, 22025.43, 9086.88, -52338.84, -70392.28, -44045.72, -45861.26, -69215.66, -58044.48, 0.000, 0.000, 0.000, 13:05:13.726, 1584014713726
208, 16172.00, 6999.92, -52209.34, -70855.95, -42034.24, -48216.24, -67280.23, -62098.38, 0.028, 0.878, 0.434, 13:05:13.726, 1584014713726
209, 10119.24, 5573.79, -52261.28, -70677.31, -41114.29, -48601.99, -67084.42, -66151.82, 0.000, 0.000, 0.000, 13:05:13.726, 1584014713726
210, 11746.80, 6795.29, -52457.38, -70203.05, -42517.71, -46447.35, -68828.75, -63981.00, 0.000, 0.000, 0.000, 13:05:13.727, 1584014713727
211, 19902.87, 9197.81, -52467.97, -69916.63, -44382.00, -44421.43, -70272.25, -58740.54, 0.000, 0.000, 0.000, 13:05:13.727, 1584014713727
212, 21982.43, 9098.25, -52352.50, -70374.48, -44256.03, -45872.24, -69393.80, -58133.60, 0.000, 0.000, 0.000, 13:05:13.727, 1584014713727
213, 15786.90, 6994.69, -52240.56, -70837.28, -42440.48, -48225.27, -67583.54, -62234.23, 0.000, 0.000, 0.000, 13:05:13.727, 1584014713727
214, 9388.42, 5560.51, -52271.56, -70647.36, -41666.60, -48607.20, -67437.58, -66325.98, 0.000, 0.000, 0.000, 13:05:13.727, 1584014713727
215, 10974.30, 6775.44, -52450.94, -70184.81, -42946.80, -46437.47, -69040.67, -64094.50, 0.000, 0.000, 0.000, 13:05:13.727, 1584014713727
216, 19157.90, 9168.89, -52461.58, -69904.34, -44676.49, -44422.86, -70392.48, -58824.43, 0.000, 0.000, 0.000, 13:05:13.727, 1584014713727
217, 21296.99, 9065.64, -52342.22, -70361.44, -44430.04, -45870.92, -69453.46, -58192.70, 0.034, 0.880, 0.434, 13:05:13.727, 1584014713727
218, 15172.23, 6963.86, -52228.05, -70822.66, -42542.77, -48219.46, -67615.23, -62285.70, 0.000, 0.000, 0.000, 13:05:13.727, 1584014713727
219, 8881.60, 5532.86, -52263.83, -70640.54, -41702.03, -48594.75, -67439.93, -66345.54, 0.000, 0.000, 0.000, 13:05:13.727, 1584014713727
220, 10514.28, 6756.78, -52447.63, -70179.16, -42981.02, -46433.02, -69050.62, -64116.91, 0.000, 0.000, 0.000, 13:05:13.727, 1584014713727
221, 18740.22, 9150.83, -52464.97, -69910.71, -44706.80, -44429.48, -70401.02, -58829.43, 0.000, 0.000, 0.000, 13:05:13.727, 1584014713727
222, 20883.99, 9045.62, -52342.80, -70370.60, -44468.26, -45887.55, -69459.41, -58217.51, 0.000, 0.000, 0.000, 13:05:13.727, 1584014713727
223, 14867.22, 6945.27, -52231.33, -70840.30, -42517.96, -48225.27, -67575.85, -62271.67, 0.000, 0.000, 0.000, 13:05:13.727, 1584014713727
224, 8668.97, 5525.24, -52274.34, -70652.23, -41651.82, -48593.79, -67397.88, -66307.66, 0.000, 0.000, 0.000, 13:05:13.727, 1584014713727
225, 10347.34, 6752.04, -52462.31, -70186.20, -42934.41, -46425.60, -69020.27, -64069.46, 0.000, 0.000, 0.000, 13:05:13.727, 1584014713727
226, 18549.24, 9148.64, -52478.56, -69909.13, -44699.40, -44425.14, -70396.19, -58807.35, 0.000, 0.000, 0.000, 13:05:13.727, 1584014713727
227, 20709.45, 9040.01, -52346.35, -70369.59, -44451.27, -45882.18, -69439.29, -58194.39, 0.030, 0.880, 0.438, 13:05:13.727, 1584014713727
228, 14696.29, 6939.26, -52223.87, -70835.38, -42511.38, -48233.81, -67562.21, -62282.80, 0.000, 0.000, 0.000, 13:05:13.727, 1584014713727
229, 8504.53, 5514.80, -52269.42, -70649.77, -41658.44, -48601.65, -67389.30, -66336.94, 0.000, 0.000, 0.000, 13:05:13.727, 1584014713727
230, 10164.01, 6741.35, -52461.89, -70184.52, -42964.50, -46435.75, -69025.45, -64114.43, 0.000, 0.000, 0.000, 13:05:13.727, 1584014713727
231, 18374.90, 9136.30, -52482.16, -69910.64, -44713.14, -44426.77, -70389.75, -58824.83, 0.000, 0.000, 0.000, 13:05:13.727, 1584014713727
232, 20539.89, 9023.73, -52348.66, -70372.77, -44454.58, -45886.54, -69427.55, -58205.04, 0.000, 0.000, 0.000, 13:05:13.727, 1584014713727
233, 14569.67, 6927.99, -52229.79, -70836.03, -42499.16, -48235.02, -67548.06, -62283.78, 0.000, 0.000, 0.000, 13:05:13.728, 1584014713728
234, 8427.68, 5511.49, -52273.96, -70646.62, -41633.54, -48590.05, -67374.23, -66322.25, 0.000, 0.000, 0.000, 13:05:13.728, 1584014713728
235, 10126.32, 6745.29, -52465.09, -70179.27, -42932.38, -46423.14, -69016.04, -64071.41, 0.000, 0.000, 0.000, 13:05:13.728, 1584014713728
236, 18311.24, 9143.52, -52477.07, -69903.83, -44702.57, -44412.96, -70389.46, -58781.82, 0.000, 0.000, 0.000, 13:05:13.728, 1584014713728
237, 20494.96, 9025.59, -52347.40, -70373.70, -44416.91, -45877.02, -69409.80, -58148.08, 0.034, 0.878, 0.438, 13:05:13.728, 1584014713728
238, 14537.60, 6925.20, -52231.27, -70837.34, -42469.74, -48242.39, -67537.34, -62250.34, 0.000, 0.000, 0.000, 13:05:13.728, 1584014713728
239, 8401.66, 5505.68, -52276.19, -70645.14, -41620.36, -48596.56, -67374.15, -66307.61, 0.000, 0.000, 0.000, 13:05:13.728, 1584014713728
240, 10092.46, 6737.31, -52472.73, -70177.48, -42934.77, -46426.02, -69023.57, -64065.39, 0.000, 0.000, 0.000, 13:05:13.728, 1584014713728
241, 18259.36, 9138.29, -52489.25, -69899.83, -44722.71, -44419.42, -70407.63, -58780.30, 0.000, 0.000, 0.000, 13:05:13.728, 1584014713728
242, 20395.72, 9019.06, -52350.40, -70365.21, -44456.07, -45890.34, -69434.53, -58186.53, 0.000, 0.000, 0.000, 13:05:13.728, 1584014713728
243, 14458.14, 6915.72, -52225.86, -70829.97, -42478.57, -48239.22, -67531.86, -62288.27, 0.000, 0.000, 0.000, 13:05:13.728, 1584014713728
244, 8375.80, 5497.34, -52273.71, -70643.78, -41587.81, -48585.05, -67342.32, -66316.69, 0.000, 0.000, 0.000, 13:05:13.728, 1584014713728
245, 10074.56, 6729.57, -52477.36, -70181.46, -42912.31, -46421.31, -69006.47, -64064.99, 0.000, 0.000, 0.000, 13:05:13.728, 1584014713728
246, 18230.84, 9132.16, -52490.81, -69901.48, -44709.68, -44409.99, -70393.89, -58761.41, 0.000, 0.000, 0.000, 13:05:13.728, 1584014713728
247, 20385.93, 9011.31, -52347.29, -70365.97, -44415.98, -45875.59, -69395.46, -58148.24, 0.030, 0.884, 0.432, 13:05:13.728, 1584014713728
248, 14479.91, 6911.23, -52220.20, -70827.83, -42430.67, -48230.70, -67488.09, -62256.76, 0.000, 0.000, 0.000, 13:05:13.728, 1584014713728
249, 8415.30, 5499.24, -52270.65, -70640.38, -41558.69, -48573.82, -67315.12, -66292.50, 0.000, 0.000, 0.000, 13:05:13.728, 1584014713728
250, 10117.34, 6735.74, -52474.88, -70177.79, -42897.71, -46403.34, -68980.92, -64035.27, 0.000, 0.000, 0.000, 13:05:13.728, 1584014713728
251, 18223.13, 9132.72, -52492.94, -69902.33, -44733.24, -44409.05, -70386.60, -58763.56, 0.000, 0.000, 0.000, 13:05:13.728, 1584014713728
252, 20323.68, 9003.71, -52347.40, -70369.37, -44460.25, -45884.96, -69396.11, -58188.00, 0.000, 0.000, 0.000, 13:05:13.728, 1584014713728
253, 14460.46, 6902.62, -52221.68, -70840.61, -42447.19, -48230.30, -67477.05, -62272.58, 0.000, 0.000, 0.000, 13:05:13.728, 1584014713728
254, 8438.39, 5496.54, -52269.31, -70649.75, -41566.62, -48571.64, -67314.42, -66292.41, 0.000, 0.000, 0.000, 13:05:13.728, 1584014713728
255, 10153.01, 6738.18, -52465.27, -70182.51, -42906.92, -46400.21, -68992.30, -64027.84, 0.000, 0.000, 0.000, 13:05:13.728, 1584014713728
0, 18252.43, 9136.79, -52482.41, -69905.01, -44735.50, -44413.27, -70404.22, -58755.22, 0.000, 0.000, 0.000, 13:05:13.729, 1584014713729
1, 20354.75, 9003.91, -52336.36, -70371.78, -44447.36, -45889.29, -69409.36, -58183.18, 0.026, 0.878, 0.430, 13:05:13.729, 1584014713729
2, 14466.79, 6906.93, -52201.83, -70829.08, -42451.57, -48243.69, -67503.16, -62306.07, 0.000, 0.000, 0.000, 13:05:13.729, 1584014713729
3, 8448.09, 5499.36, -52248.30, -70635.96, -41565.68, -48570.07, -67331.70, -66323.26, 0.000, 0.000, 0.000, 13:05:13.729, 1584014713729
4, 10170.20, 6736.82, -52456.91, -70171.87, -42899.14, -46398.91, -69009.82, -64044.05, 0.000, 0.000, 0.000, 13:05:13.729, 1584014713729
5, 18268.24, 9134.35, -52477.45, -69893.84, -44731.56, -44407.48, -70424.29, -58761.06, 0.000, 0.000, 0.000, 13:05:13.729, 1584014713729
6, 20359.96, 9001.41, -52318.64, -70356.38, -44438.42, -45877.07, -69414.10, -58188.09, 0.000, 0.000, 0.000, 13:05:13.729, 1584014713729
7, 14529.55, 6898.78, -52184.26, -70823.22, -42403.11, -48226.48, -67473.39, -62276.00, 0.000, 0.000, 0.000, 13:05:13.729, 1584014713729
8, 8527.62, 5500.21, -52239.09, -70628.07, -41541.63, -48561.22, -67307.31, -66295.34, 0.000, 0.000, 0.000, 13:05:13.729, 1584014713729
9, 10238.48, 6745.49, -52440.30, -70156.40, -42903.99, -46380.47, -68982.64, -64020.40, 0.000, 0.000, 0.000, 13:05:13.729, 1584014713729
10, 18295.84, 9140.14, -52459.43, -69877.98, -44761.31, -44396.08, -70400.48, -58754.48, 0.032, 0.884, 0.436, 13:05:13.729, 1584014713729
11, 20359.60, 8997.78, -52306.48, -70346.99, -44472.28, -45868.19, -69381.22, -58190.73, 0.000, 0.000, 0.000, 13:05:13.729, 1584014713729
12, 14535.81, 6895.00, -52178.45, -70817.72, -42434.81, -48212.31, -67439.28, -62278.91, 0.000, 0.000, 0.000, 13:05:13.729, 1584014713729
13, 8581.46, 5498.62, -52235.89, -70626.70, -41540.25, -48532.81, -67265.80, -66269.66, 0.000, 0.000, 0.000, 13:05:13.729, 1584014713729
14, 10281.44, 6742.87, -52443.56, -70155.20, -42904.15, -46362.48, -68959.80, -64011.41, 0.000, 0.000, 0.000, 13:05:13.729, 1584014713729
15, 18312.20, 9135.96, -52462.94, -69876.36, -44756.55, -44371.14, -70385.24, -58757.46, 0.000, 0.000, 0.000, 13:05:13.729, 1584014713729
16, 20376.68, 8997.43, -52305.02, -70344.54, -44450.73, -45844.68, -69370.24, -58190.51, 0.000, 0.000, 0.000, 13:05:13.729, 1584014713729
17, 14573.67, 6899.67, -52178.40, -70818.44, -42408.54, -48201.22, -67432.73, -62272.65, 0.000, 0.000, 0.000, 13:05:13.729, 1584014713729
18, 8634.90, 5511.18, -52231.49, -70627.29, -41522.63, -48535.34, -67266.70, -66258.66, 0.000, 0.000, 0.000, 13:05:13.729, 1584014713729
19, 10337.39, 6757.25, -52440.05, -70161.23, -42892.35, -46368.04, -68966.75, -63997.98, 0.000, 0.000, 0.000, 13:05:13.729, 1584014713729
20, 18366.96, 9141.84, -52466.29, -69888.60, -44743.09, -44380.04, -70401.78, -58738.95, 0.034, 0.890, 0.432, 13:05:13.729, 1584014713729
21, 20401.29, 9002.25, -52309.65, -70350.73, -44459.45, -45860.21, -69400.71, -58190.17, 0.000, 0.000, 0.000, 13:05:13.729, 1584014713729
22, 14592.76, 6906.11, -52177.38, -70820.80, -42411.41, -48207.70, -67457.41, -62277.41, 0.000, 0.000, 0.000, 13:05:13.730, 1584014713730
23, 8667.92, 5516.43, -52233.01, -70629.59, -41517.71, -48532.77, -67290.80, -66256.98, 0.000, 0.000, 0.000, 13:05:13.730, 1584014713730
24, 10367.41, 6758.34, -52440.70, -70164.13, -42893.31, -46359.62, -68996.46, -63998.83, 0.000, 0.000, 0.000, 13:05:13.730, 1584014713730
25, 18377.58, 9142.38, -52465.02, -69889.90, -44756.21, -44379.14, -70430.88, -58759.29, 0.000, 0.000, 0.000, 13:05:13.730, 1584014713730
26, 20419.57, 8992.84, -52304.98, -70357.16, -44450.06, -45852.32, -69400.40, -58194.64, 0.000, 0.000, 0.000, 13:05:13.730, 1584014713730
27, 14626.33, 6892.92, -52176.43, -70832.20, -42395.16, -48209.71, -67448.02, -62276.36, 0.000, 0.000, 0.000, 13:05:13.730, 1584014713730
28, 8698.70, 5512.52, -52230.01, -70632.88, -41525.74, -48537.13, -67286.44, -66265.73, 0.000, 0.000, 0.000, 13:05:13.730, 1584014713730
29, 10389.96, 6761.83, -52434.87, -70157.43, -42916.22, -46363.75, -68989.33, -64014.59, 0.000, 0.000, 0.000, 13:05:13.730, 1584014713730
30, 18404.16, 9144.01, -52463.05, -69885.50, -44773.43, -44382.76, -70415.73, -58758.06, 0.034, 0.886, 0.432, 13:05:13.730, 1584014713730
31, 20425.45, 8992.29, -52307.84, -70351.30, -44465.31, -45864.91, -69389.27, -58206.15, 0.000, 0.000, 0.000, 13:05:13.730, 1584014713730
32, 14605.77, 6895.76, -52180.97, -70819.51, -42415.45, -48219.51, -67435.97, -62309.84, 0.000, 0.000, 0.000, 13:05:13.730, 1584014713730
33, 8706.65, 5520.57, -52238.98, -70617.43, -41532.02, -48521.70, -67264.42, -66269.45, 0.000, 0.000, 0.000, 13:05:13.730, 1584014713730
34, 10421.41, 6766.23, -52448.95, -70148.76, -42914.92, -46365.74, -68979.31, -64005.31, 0.000, 0.000, 0.000, 13:05:13.730, 1584014713730
35, 18411.82, 9143.67, -52474.81, -69876.85, -44782.14, -44387.01, -70417.45, -58774.78, 0.000, 0.000, 0.000, 13:05:13.730, 1584014713730
36, 20421.40, 8991.37, -52322.95, -70347.55, -44476.86, -45865.40, -69395.59, -58225.38, 0.000, 0.000, 0.000, 13:05:13.730, 1584014713730
37, 14585.21, 6892.43, -52185.33, -70813.81, -42432.30, -48218.05, -67448.53, -62326.99, 0.000, 0.000, 0.000, 13:05:13.730, 1584014713730
38, 8698.09, 5517.26, -52236.79, -70615.55, -41535.98, -48520.74, -67274.10, -66266.35, 0.000, 0.000, 0.000, 13:05:13.730, 1584014713730
39, 10417.57, 6767.95, -52445.10, -70146.30, -42917.72, -46364.20, -68991.27, -63999.23, 0.000, 0.000, 0.000, 13:05:13.730, 1584014713730
40, 18423.09, 9151.88, -52470.41, -69873.48, -44781.85, -44395.61, -70432.24, -58768.19, 0.034, 0.896, 0.430, 13:05:13.730, 1584014713730
41, 20403.81, 8995.39, -52313.05, -70338.73, -44483.14, -45872.02, -69410.14, -58237.54, 0.000, 0.000, 0.000, 13:05:13.730, 1584014713730
42, 14555.90, 6890.62, -52181.91, -70809.72, -42435.57, -48216.04, -67459.26, -62336.71, 0.000, 0.000, 0.000, 13:05:13.730, 1584014713730
43, 8669.15, 5516.97, -52239.33, -70612.94, -41548.67, -48505.34, -67287.91, -66266.15, 0.000, 0.000, 0.000, 13:05:13.730, 1584014713730
44, 10393.99, 6768.85, -52445.66, -70143.82, -42938.93, -46353.92, -69011.10, -63998.32, 0.000, 0.000, 0.000, 13:05:13.730, 1584014713730
45, 18402.39, 9147.72, -52464.73, -69871.08, -44800.36, -44389.45, -70449.84, -58769.04, 0.000, 0.000, 0.000, 13:05:13.731, 1584014713731
46, 20376.36, 8987.30, -52307.21, -70340.58, -44492.44, -45875.05, -69416.80, -58237.94, 0.000, 0.000, 0.000, 13:05:13.731, 1584014713731
47, 14507.65, 6881.79, -52174.74, -70813.14, -42444.57, -48218.68, -67458.41, -62340.78, 0.000, 0.000, 0.000, 13:05:13.731, 1584014713731
48, 8623.84, 5512.99, -52229.03, -70613.23, -41553.81, -48498.46, -67286.26, -66260.49, 0.000, 0.000, 0.000, 13:05:13.731, 1584014713731
49, 10378.88, 6763.77, -52441.44, -70149.95, -42934.28, -46351.13, -69006.05, -63980.01, 0.034, 0.886, 0.432, 13:05:13.731, 1584014713731
50, 18397.25, 9148.48, -52460.91, -69875.15, -44815.11, -44395.61, -70458.44, -58766.85, 0.000, 0.000, 0.000, 13:05:13.731, 1584014713731
51, 20375.94, 8984.37, -52304.27, -70346.10, -44495.30, -45870.41, -69414.03, -58231.19, 0.000, 0.000, 0.000, 13:05:13.731, 1584014713731
52, 14488.15, 6882.86, -52177.15, -70812.02, -42446.65, -48217.81, -67452.53, -62340.02, 0.000, 0.000, 0.000, 13:05:13.731, 1584014713731
53, 8588.66, 5518.44, -52233.84, -70609.74, -41566.58, -48492.11, -67281.37, -66259.20, 0.000, 0.000, 0.000, 13:05:13.731, 1584014713731
54, 10345.82, 6772.94, -52440.68, -70144.76, -42958.46, -46349.05, -69007.08, -63990.83, 0.000, 0.000, 0.000, 13:05:13.731, 1584014713731
55, 18370.79, 9151.76, -52461.31, -69877.23, -44841.49, -44402.72, -70463.80, -58803.41, 0.000, 0.000, 0.000, 13:05:14.205, 1584014714205
56, 20326.34, 8982.09, -52304.67, -70346.77, -44525.90, -45875.25, -69421.14, -58286.17, 0.000, 0.000, 0.000, 13:05:14.205, 1584014714205
57, 14444.10, 6872.78, -52178.34, -70819.09, -42453.61, -48210.63, -67442.50, -62361.99, 0.000, 0.000, 0.000, 13:05:14.205, 1584014714205
58, 8561.90, 5510.20, -52240.76, -70618.73, -41561.10, -48487.88, -67276.55, -66257.63, 0.000, 0.000, 0.000, 13:05:14.205, 1584014714205
59, 10337.14, 6768.67, -52445.10, -70150.99, -42959.27, -46349.61, -69021.24, -63986.09, 0.038, 0.890, 0.430, 13:05:14.205, 1584014714205
60, 18402.79, 9152.88, -52463.75, -69880.83, -44840.84, -44406.10, -70482.18, -58785.85, 0.000, 0.000, 0.000, 13:05:14.205, 1584014714205
61, 20369.26, 8987.61, -52308.40, -70347.66, -44520.67, -45878.25, -69434.22, -58265.43, 0.000, 0.000, 0.000, 13:05:14.205, 1584014714205
62, 14458.81, 6875.49, -52182.63, -70822.10, -42453.85, -48209.49, -67460.34, -62348.13, 0.000, 0.000, 0.000, 13:05:14.205, 1584014714205
63, 8544.85, 5516.48, -52233.99, -70615.84, -41576.79, -48478.74, -67299.31, -66252.76, 0.000, 0.000, 0.000, 13:05:14.205, 1584014714205
64, 10321.57, 6776.53, -52437.26, -70145.49, -42984.19, -46336.55, -69044.13, -63988.46, 0.000, 0.000, 0.000, 13:05:14.205, 1584014714205
65, 18419.87, 9157.75, -52457.75, -69878.26, -44857.07, -44390.61, -70500.08, -58784.80, 0.000, 0.000, 0.000, 13:05:14.205, 1584014714205
66, 20367.13, 8984.06, -52308.60, -70346.05, -44545.26, -45868.50, -69454.40, -58282.24, 0.000, 0.000, 0.000, 13:05:14.205, 1584014714205
67, 14424.12, 6866.75, -52183.41, -70818.05, -42470.91, -48193.67, -67462.75, -62368.99, 0.000, 0.000, 0.000, 13:05:14.205, 1584014714205
68, 8520.80, 5509.26, -52244.90, -70618.30, -41580.21, -48464.04, -67296.18, -66251.24, 0.000, 0.000, 0.000, 13:05:14.205, 1584014714205
69, 10305.67, 6777.94, -52438.06, -70143.44, -42997.56, -46326.38, -69051.02, -63995.77, 0.040, 0.892, 0.430, 13:05:14.205, 1584014714205
70, 18410.44, 9160.71, -52454.94, -69874.16, -44886.17, -44390.16, -70509.72, -58817.29, 0.000, 0.000, 0.000, 13:05:14.205, 1584014714205
71, 20345.21, 8982.96, -52301.71, -70343.55, -44561.13, -45867.70, -69440.97, -58321.22, 0.000, 0.000, 0.000, 13:05:14.205, 1584014714205
72, 14386.10, 6868.02, -52177.39, -70812.09, -42475.64, -48189.22, -67441.38, -62393.68, 0.000, 0.000, 0.000, 13:05:14.205, 1584014714205
73, 8460.45, 5512.14, -52233.14, -70605.56, -41592.41, -48446.33, -67279.46, -66269.12, 0.000, 0.000, 0.000, 13:05:14.205, 1584014714205
74, 10263.18, 6773.61, -52437.86, -70142.99, -43013.98, -46314.96, -69039.22, -64001.94, 0.000, 0.000, 0.000, 13:05:14.205, 1584014714205
75, 18415.80, 9150.36, -52463.50, -69888.76, -44896.79, -44396.87, -70509.09, -58812.22, 0.000, 0.000, 0.000, 13:05:14.205, 1584014714205
76, 20336.73, 8969.96, -52304.22, -70352.63, -44578.30, -45874.88, -69447.78, -58336.35, 0.000, 0.000, 0.000, 13:05:14.205, 1584014714205
77, 14379.06, 6853.29, -52177.35, -70822.33, -42466.93, -48188.26, -67427.70, -62394.38, 0.000, 0.000, 0.000, 13:05:14.205, 1584014714205
78, 8447.64, 5499.45, -52238.84, -70613.95, -41582.80, -48455.18, -67269.49, -66266.57, 0.000, 0.000, 0.000, 13:05:14.205, 1584014714205
79, 10262.76, 6770.37, -52439.58, -70144.29, -43015.53, -46319.65, -69043.98, -64003.95, 0.040, 0.880, 0.426, 13:05:14.206, 1584014714206
80, 18425.06, 9157.62, -52455.45, -69879.42, -44916.01, -44397.25, -70522.97, -58830.28, 0.000, 0.000, 0.000, 13:05:14.206, 1584014714206
81, 20366.46, 8968.91, -52308.02, -70350.77, -44565.58, -45874.18, -69440.81, -58341.94, 0.000, 0.000, 0.000, 13:05:14.206, 1584014714206
82, 14381.80, 6853.56, -52187.84, -70817.07, -42463.20, -48190.27, -67429.42, -62405.93, 0.000, 0.000, 0.000, 13:05:14.206, 1584014714206
83, 8444.06, 5503.07, -52244.27, -70608.91, -41577.20, -48443.00, -67270.84, -66268.34, 0.000, 0.000, 0.000, 13:05:14.206, 1584014714206
84, 10287.39, 6774.79, -52446.87, -70142.25, -43010.88, -46315.03, -69058.08, -63995.70, 0.000, 0.000, 0.000, 13:05:14.206, 1584014714206
85, 18450.87, 9164.95, -52460.14, -69873.96, -44945.94, -44398.59, -70555.47, -58840.38, 0.000, 0.000, 0.000, 13:05:14.206, 1584014714206
86, 20390.33, 8973.69, -52308.15, -70350.08, -44593.70, -45872.80, -69460.03, -58346.21, 0.000, 0.000, 0.000, 13:05:14.206, 1584014714206
87, 14393.88, 6850.99, -52189.45, -70823.20, -42470.41, -48185.69, -67428.41, -62402.76, 0.000, 0.000, 0.000, 13:05:14.206, 1584014714206
88, 8433.07, 5504.25, -52248.41, -70612.09, -41594.07, -48441.48, -67275.89, -66275.65, 0.032, 0.878, 0.426, 13:05:14.206, 1584014714206
89, 10261.82, 6779.91, -52445.95, -70141.25, -43056.68, -46314.78, -69075.25, -64021.96, 0.000, 0.000, 0.000, 13:05:14.206, 1584014714206
90, 18456.42, 9168.80, -52459.36, -69879.17, -44987.45, -44407.53, -70571.32, -58864.61, 0.000, 0.000, 0.000, 13:05:14.206, 1584014714206
91, 20370.75, 8977.29, -52308.64, -70348.58, -44644.19, -45884.49, -69475.52, -58390.80, 0.000, 0.000, 0.000, 13:05:14.206, 1584014714206
92, 14351.12, 6853.98, -52185.49, -70816.65, -42503.00, -48187.54, -67427.70, -62440.63, 0.000, 0.000, 0.000, 13:05:14.206, 1584014714206
93, 8401.39, 5502.98, -52242.11, -70607.95, -41598.63, -48438.96, -67262.90, -66288.77, 0.000, 0.000, 0.000, 13:05:14.206, 1584014714206
94, 10245.95, 6775.28, -52442.04, -70141.45, -43066.16, -46322.47, -69082.00, -64036.38, 0.000, 0.000, 0.000, 13:05:14.206, 1584014714206
95, 18449.08, 9165.67, -52455.00, -69876.73, -45017.69, -44418.26, -70595.39, -58894.90, 0.000, 0.000, 0.000, 13:05:14.206, 1584014714206
96, 20382.42, 8974.38, -52300.02, -70346.46, -44654.31, -45886.54, -69478.20, -58413.62, 0.000, 0.000, 0.000, 13:05:14.206, 1584014714206
97, 14372.48, 6852.15, -52181.35, -70814.50, -42489.52, -48183.81, -67411.98, -62441.32, 0.000, 0.000, 0.000, 13:05:14.206, 1584014714206
98, 8413.80, 5501.32, -52244.23, -70609.07, -41589.31, -48442.44, -67256.04, -66287.31, 0.036, 0.884, 0.428, 13:05:14.206, 1584014714206
99, 10230.97, 6777.03, -52444.50, -70136.91, -43098.43, -46330.80, -69105.04, -64062.33, 0.000, 0.000, 0.000, 13:05:14.206, 1584014714206
100, 18434.44, 9167.28, -52455.45, -69873.02, -45072.34, -44423.55, -70635.00, -58929.48, 0.000, 0.000, 0.000, 13:05:14.206, 1584014714206
101, 20350.88, 8971.12, -52298.61, -70340.89, -44703.75, -45888.82, -69503.89, -58452.07, 0.000, 0.000, 0.000, 13:05:14.206, 1584014714206
102, 14323.09, 6844.73, -52183.14, -70814.10, -42510.54, -48180.50, -67411.65, -62468.41, 0.000, 0.000, 0.000, 13:05:14.206, 1584014714206
103, 8344.62, 5499.02, -52249.75, -70605.88, -41610.03, -48439.04, -67268.27, -66306.72, 0.000, 0.000, 0.000, 13:05:14.206, 1584014714206
104, 10091.34, 6778.93, -52452.43, -70128.10, -43187.19, -46336.33, -69187.68, -64108.85, 0.000, 0.000, 0.000, 13:05:14.206, 1584014714206
105, 18166.74, 9166.56, -52456.03, -69856.38, -45265.52, -44431.55, -70781.69, -59028.32, 0.000, 0.000, 0.000, 13:05:14.206, 1584014714206
106, 20120.59, 8960.77, -52291.86, -70337.59, -44806.77, -45877.65, -69556.66, -58492.77, 0.000, 0.000, 0.000, 13:05:14.206, 1584014714206
107, 14187.17, 6834.90, -52181.35, -70818.57, -42492.25, -48179.21, -67382.15, -62453.66, 0.000, 0.000, 0.000, 13:05:14.206, 1584014714206
108, 8243.12, 5492.11, -52253.53, -70608.96, -41558.73, -48441.30, -67241.00, -66287.63, 0.040, 0.882, 0.428, 13:05:14.206, 1584014714206
109, 10018.21, 6773.05, -52455.39, -70131.63, -43153.91, -46341.78, -69187.32, -64098.14, 0.000, 0.000, 0.000, 13:05:14.206, 1584014714206
110, 18137.48, 9165.58, -52458.71, -69857.80, -45254.26, -44444.23, -70795.77, -59039.16, 0.000, 0.000, 0.000, 13:05:14.206, 1584014714206
111, 20066.86, 8966.16, -52285.94, -70325.98, -44826.58, -45884.00, -69567.05, -58547.98, 0.000, 0.000, 0.000, 13:05:14.207, 1584014714207
112, 14121.03, 6836.82, -52166.00, -70807.66, -42494.66, -48162.15, -67356.78, -62496.68, 0.000, 0.000, 0.000, 13:05:14.207, 1584014714207
113, 8200.94, 5494.46, -52239.87, -70599.75, -41537.63, -48421.81, -67197.92, -66294.51, 0.000, 0.000, 0.000, 13:05:14.207, 1584014714207
114, 9964.56, 6777.74, -52443.20, -70117.02, -43173.60, -46328.32, -69177.66, -64116.63, 0.000, 0.000, 0.000, 13:05:14.207, 1584014714207
115, 18118.77, 9167.41, -52447.56, -69848.69, -45283.85, -44424.56, -70792.51, -59047.56, 0.000, 0.000, 0.000, 13:05:14.207, 1584014714207
116, 20111.74, 8967.72, -52281.93, -70328.48, -44809.57, -45865.91, -69528.25, -58522.65, 0.000, 0.000, 0.000, 13:05:14.207, 1584014714207
117, 14198.45, 6839.97, -52171.14, -70811.71, -42426.49, -48150.95, -67289.45, -62454.66, 0.000, 0.000, 0.000, 13:05:14.207, 1584014714207
118, 8275.58, 5500.50, -52249.64, -70603.84, -41471.49, -48413.09, -67148.98, -66257.27, 0.030, 0.880, 0.436, 13:05:14.207, 1584014714207
119, 10038.41, 6787.53, -52451.32, -70124.26, -43145.73, -46329.51, -69168.68, -64098.43, 0.000, 0.000, 0.000, 13:05:14.207, 1584014714207
120, 18187.97, 9176.60, -52449.75, -69853.20, -45292.05, -44437.84, -70814.26, -59069.94, 0.000, 0.000, 0.000, 13:05:14.207, 1584014714207
121, 20189.95, 8967.90, -52286.34, -70335.38, -44792.25, -45873.07, -69525.61, -58555.24, 0.000, 0.000, 0.000, 13:05:14.207, 1584014714207
122, 14243.60, 6838.54, -52173.53, -70818.66, -42402.29, -48156.27, -67276.78, -62492.55, 0.000, 0.000, 0.000, 13:05:14.207, 1584014714207
123, 8323.61, 5498.35, -52247.54, -70613.05, -41429.09, -48412.49, -67127.78, -66255.51, 0.000, 0.000, 0.000, 13:05:14.207, 1584014714207
124, 10083.74, 6788.52, -52446.54, -70125.98, -43133.21, -46333.67, -69179.66, -64104.13, 0.000, 0.000, 0.000, 13:05:14.207, 1584014714207
125, 18239.65, 9178.07, -52443.05, -69853.73, -45317.22, -44443.16, -70848.73, -59108.56, 0.000, 0.000, 0.000, 13:05:14.207, 1584014714207
126, 20244.94, 8966.18, -52281.20, -70340.09, -44797.68, -45875.72, -69536.77, -58601.46, 0.000, 0.000, 0.000, 13:05:14.207, 1584014714207
127, 14277.51, 6833.64, -52171.12, -70821.95, -42368.42, -48150.26, -67250.30, -62521.54, 0.030, 0.872, 0.432, 13:05:14.207, 1584014714207
128, 8347.62, 5499.38, -52251.94, -70614.27, -41389.51, -48405.52, -67098.93, -66247.35, 0.000, 0.000, 0.000, 13:05:14.207, 1584014714207
129, 10104.73, 6792.11, -52447.07, -70129.49, -43128.83, -46338.56, -69178.18, -64089.78, 0.000, 0.000, 0.000, 13:05:14.207, 1584014714207
130, 18262.92, 9182.97, -52436.97, -69854.61, -45349.48, -44449.48, -70865.96, -59115.58, 0.000, 0.000, 0.000, 13:05:14.207, 1584014714207
131, 20242.70, 8966.49, -52270.49, -70339.73, -44831.88, -45865.62, -69528.01, -58622.75, 0.000, 0.000, 0.000, 13:05:14.207, 1584014714207
132, 14293.07, 6822.18, -52169.02, -70833.48, -42336.15, -48134.68, -67197.16, -62488.34, 0.000, 0.000, 0.000, 13:05:14.207, 1584014714207
133, 8353.25, 5489.61, -52253.35, -70621.59, -41355.89, -48400.44, -67066.88, -66197.17, 0.000, 0.000, 0.000, 13:05:14.207, 1584014714207
134, 10096.48, 6783.53, -52450.07, -70133.27, -43139.76, -46342.68, -69188.55, -64066.47, 0.000, 0.000, 0.000, 13:05:14.207, 1584014714207
135, 18238.89, 9175.64, -52438.84, -69854.54, -45409.27, -44468.32, -70906.19, -59145.17, 0.000, 0.000, 0.000, 13:05:14.207, 1584014714207
136, 20226.56, 8960.57, -52268.01, -70337.45, -44860.60, -45879.73, -69536.66, -58647.60, 0.000, 0.000, 0.000, 13:05:14.207, 1584014714207
137, 14292.06, 6819.23, -52166.13, -70831.65, -42307.96, -48130.84, -67163.84, -62474.40, 0.038, 0.870, 0.430, 13:05:14.207, 1584014714207
138, 8379.87, 5489.95, -52254.11, -70624.31, -41292.03, -48393.69, -67033.57, -66146.95, 0.000, 0.000, 0.000, 13:05:14.207, 1584014714207
139, 10135.26, 6787.02, -52451.72, -70134.99, -43100.13, -46352.93, -69197.18, -64037.39, 0.000, 0.000, 0.000, 13:05:14.207, 1584014714207
140, 18314.77, 9176.87, -52439.92, -69857.58, -45391.03, -44483.93, -70939.63, -59135.92, 0.000, 0.000, 0.000, 13:05:14.207, 1584014714207
141, 20304.84, 8955.65, -52268.17, -70340.34, -44839.61, -45878.41, -69554.31, -58634.73, 0.000, 0.000, 0.000, 13:05:14.208, 1584014714208
142, 14332.41, 6808.99, -52169.26, -70835.85, -42267.93, -48120.49, -67160.93, -62447.84, 0.000, 0.000, 0.000, 13:05:14.208, 1584014714208
143, 8385.08, 5483.73, -52257.19, -70624.49, -41261.92, -48374.80, -67031.60, -66117.87, 0.000, 0.000, 0.000, 13:05:14.208, 1584014714208
144, 10139.31, 6785.03, -52447.56, -70135.55, -43094.70, -46334.85, -69210.38, -64027.33, 0.000, 0.000, 0.000, 13:05:14.208, 1584014714208
145, 18335.16, 9176.08, -52435.67, -69862.77, -45423.64, -44479.10, -70973.72, -59161.27, 0.000, 0.000, 0.000, 13:05:14.208, 1584014714208
146, 20312.82, 8950.89, -52268.48, -70344.76, -44868.58, -45876.66, -69566.05, -58672.50, 0.000, 0.000, 0.000, 13:05:14.208, 1584014714208
147, 14318.71, 6803.45, -52168.32, -70837.19, -42261.56, -48113.47, -67132.37, -62460.50, 0.038, 0.872, 0.434, 13:05:14.208, 1584014714208
148, 8375.96, 5483.73, -52259.27, -70625.74, -41236.15, -48367.52, -66993.36, -66099.90, 0.000, 0.000, 0.000, 13:05:14.208, 1584014714208
149, 10123.57, 6792.61, -52445.62, -70126.34, -43114.70, -46340.21, -69208.17, -64033.07, 0.000, 0.000, 0.000, 13:05:14.208, 1584014714208
150, 18355.63, 9191.33, -52425.55, -69849.80, -45455.49, -44476.39, -70978.86, -59175.95, 0.000, 0.000, 0.000, 13:05:14.208, 1584014714208
151, 20343.91, 8961.19, -52262.78, -70340.96, -44879.73, -45871.46, -69551.95, -58685.04, 0.000, 0.000, 0.000, 13:05:14.208, 1584014714208
152, 14319.17, 6801.37, -52168.07, -70840.74, -42246.96, -48108.53, -67096.27, -62464.94, 0.000, 0.000, 0.000, 13:05:14.208, 1584014714208
153, 8358.19, 5481.14, -52255.29, -70625.79, -41219.12, -48354.46, -66966.47, -66092.81, 0.000, 0.000, 0.000, 13:05:14.208, 1584014714208
154, 10142.53, 6795.06, -52443.98, -70129.42, -43097.16, -46333.27, -69199.01, -64022.73, 0.000, 0.000, 0.000, 13:05:14.208, 1584014714208
155, 18395.22, 9194.28, -52424.54, -69848.39, -45461.75, -44485.27, -70988.24, -59194.05, 0.000, 0.000, 0.000, 13:05:14.208, 1584014714208
156, 20407.75, 8963.54, -52264.30, -70339.98, -44857.16, -45870.63, -69537.95, -58681.51, 0.000, 0.000, 0.000, 13:05:14.208, 1584014714208
157, 14356.14, 6801.30, -52171.96, -70839.27, -42208.56, -48103.21, -67076.66, -62453.88, 0.034, 0.888, 0.436, 13:05:14.208, 1584014714208
158, 8395.34, 5484.13, -52258.02, -70621.81, -41179.51, -48340.59, -66949.84, -66059.26, 0.000, 0.000, 0.000, 13:05:14.208, 1584014714208
159, 10182.47, 6797.90, -52447.16, -70125.11, -43101.02, -46334.79, -69215.10, -64006.05, 0.000, 0.000, 0.000, 13:05:14.208, 1584014714208
160, 18452.75, 9197.97, -52425.68, -69846.20, -45497.69, -44491.64, -71020.77, -59198.68, 0.000, 0.000, 0.000, 13:05:14.208, 1584014714208
161, 20460.99, 8961.26, -52269.91, -70338.84, -44881.34, -45862.20, -69551.20, -58678.65, 0.000, 0.000, 0.000, 13:05:14.208, 1584014714208
162, 14359.99, 6795.47, -52178.00, -70832.66, -42209.26, -48082.04, -67068.06, -62444.58, 0.000, 0.000, 0.000, 13:05:14.208, 1584014714208
163, 8355.01, 5474.79, -52268.19, -70615.39, -41173.16, -48317.00, -66944.50, -66050.84, 0.000, 0.000, 0.000, 13:05:14.208, 1584014714208
164, 10187.88, 6788.47, -52459.36, -70130.92, -43074.94, -46312.46, -69216.94, -63975.34, 0.000, 0.000, 0.000, 13:05:14.208, 1584014714208
165, 18513.95, 9197.54, -52433.95, -69852.64, -45477.64, -44482.45, -71039.97, -59177.76, 0.000, 0.000, 0.000, 13:05:14.208, 1584014714208
166, 20510.92, 8960.79, -52272.52, -70341.52, -44854.32, -45857.44, -69553.93, -58679.72, 0.042, 0.886, 0.428, 13:05:14.208, 1584014714208
167, 14377.07, 6785.30, -52184.15, -70842.11, -42151.19, -48084.08, -67042.52, -62437.96, 0.000, 0.000, 0.000, 13:05:14.208, 1584014714208
168, 8371.69, 5474.57, -52272.79, -70619.10, -41109.39, -48310.03, -66920.43, -66014.16, 0.000, 0.000, 0.000, 13:05:14.208, 1584014714208
169, 10215.60, 6803.18, -52453.11, -70124.35, -43046.80, -46312.14, -69210.14, -63948.72, 0.000, 0.000, 0.000, 13:05:14.208, 1584014714208
170, 18585.72, 9214.04, -52421.19, -69846.65, -45460.96, -44487.75, -71029.86, -59156.80, 0.000, 0.000, 0.000, 13:05:14.208, 1584014714208
171, 20583.59, 8965.64, -52262.67, -70340.38, -44831.50, -45866.92, -69526.59, -58660.92, 0.000, 0.000, 0.000, 13:05:14.208, 1584014714208
172, 14449.02, 6785.39, -52173.42, -70839.31, -42111.45, -48072.48, -66991.10, -62385.93, 0.000, 0.000, 0.000, 13:05:14.209, 1584014714209
173, 8449.43, 5473.67, -52264.01, -70620.96, -41074.44, -48308.33, -66872.35, -65954.63, 0.000, 0.000, 0.000, 13:05:14.209, 1584014714209
174, 10308.74, 6801.95, -52434.87, -70124.70, -43038.42, -46307.38, -69172.30, -63906.96, 0.000, 0.000, 0.000, 13:05:14.209, 1584014714209
175, 18732.86, 9214.10, -52410.73, -69851.52, -45463.98, -44491.41, -71000.45, -59124.14, 0.000, 0.000, 0.000, 13:05:14.686, 1584014714686
176, 20690.14, 8964.46, -52252.92, -70341.16, -44848.91, -45867.12, -69500.45, -58661.59, 0.036, 0.884, 0.436, 13:05:14.686, 1584014714686
177, 14488.33, 6774.10, -52175.25, -70847.30, -42111.96, -48080.43, -66962.36, -62402.92, 0.000, 0.000, 0.000, 13:05:14.686, 1584014714686
178, 8469.92, 5474.90, -52265.11, -70620.96, -41076.34, -48287.01, -66856.28, -65951.05, 0.000, 0.000, 0.000, 13:05:14.686, 1584014714686
179, 10346.15, 6811.83, -52435.04, -70122.27, -43044.79, -46305.08, -69178.85, -63908.60, 0.000, 0.000, 0.000, 13:05:14.686, 1584014714686
180, 18798.15, 9225.75, -52405.16, -69846.83, -45471.88, -44491.55, -71013.59, -59140.48, 0.000, 0.000, 0.000, 13:05:14.686, 1584014714686
181, 20805.52, 8968.57, -52257.62, -70343.82, -44816.23, -45860.95, -69494.23, -58640.83, 0.000, 0.000, 0.000, 13:05:14.686, 1584014714686
182, 14596.87, 6781.83, -52181.87, -70844.79, -42085.52, -48066.66, -66965.80, -62358.75, 0.000, 0.000, 0.000, 13:05:14.686, 1584014714686
183, 8538.77, 5475.75, -52262.54, -70619.98, -41043.01, -48292.71, -66859.77, -65921.91, 0.000, 0.000, 0.000, 13:05:14.687, 1584014714687
184, 10416.31, 6812.23, -52429.23, -70120.68, -43011.93, -46311.98, -69193.38, -63889.53, 0.000, 0.000, 0.000, 13:05:14.687, 1584014714687
185, 18905.24, 9227.83, -52393.74, -69846.49, -45440.47, -44495.75, -71031.59, -59121.26, 0.000, 0.000, 0.000, 13:05:14.687, 1584014714687
186, 20892.02, 8968.93, -52246.46, -70339.98, -44786.34, -45859.77, -69504.98, -58634.46, 0.040, 0.888, 0.434, 13:05:14.687, 1584014714687
187, 14634.80, 6785.34, -52167.92, -70837.15, -42050.38, -48056.61, -66959.09, -62352.09, 0.000, 0.000, 0.000, 13:05:14.687, 1584014714687
188, 8566.48, 5482.77, -52258.45, -70614.21, -41011.02, -48263.58, -66844.72, -65895.16, 0.000, 0.000, 0.000, 13:05:14.687, 1584014714687
189, 10497.36, 6822.91, -52431.76, -70118.41, -42976.50, -46278.55, -69164.56, -63837.72, 0.000, 0.000, 0.000, 13:05:14.687, 1584014714687
190, 19015.72, 9241.66, -52395.64, -69841.91, -45428.46, -44477.98, -71007.00, -59085.36, 0.000, 0.000, 0.000, 13:05:14.687, 1584014714687
191, 20967.14, 8975.54, -52247.04, -70333.23, -44792.40, -45854.07, -69476.30, -58632.07, 0.000, 0.000, 0.000, 13:05:14.687, 1584014714687
192, 14687.06, 6783.35, -52173.69, -70832.95, -42048.19, -48044.27, -66922.87, -62342.05, 0.000, 0.000, 0.000, 13:05:14.687, 1584014714687
193, 8596.97, 5480.56, -52255.16, -70607.46, -41017.39, -48262.76, -66815.20, -65887.30, 0.000, 0.000, 0.000, 13:05:14.687, 1584014714687
194, 10528.36, 6826.40, -52421.63, -70111.20, -42994.96, -46286.01, -69148.63, -63840.13, 0.000, 0.000, 0.000, 13:05:14.687, 1584014714687
195, 19078.46, 9247.43, -52381.78, -69836.84, -45437.99, -44480.68, -70982.63, -59088.00, 0.000, 0.000, 0.000, 13:05:14.687, 1584014714687
196, 21023.87, 8978.16, -52238.73, -70329.80, -44792.98, -45857.08, -69447.67, -58635.13, 0.038, 0.884, 0.430, 13:05:14.687, 1584014714687
197, 14703.45, 6788.87, -52162.15, -70824.98, -42056.62, -48047.31, -66903.20, -62348.87, 0.000, 0.000, 0.000, 13:05:14.687, 1584014714687
198, 8624.00, 5483.62, -52252.39, -70606.45, -41003.45, -48261.39, -66796.15, -65869.18, 0.000, 0.000, 0.000, 13:05:14.687, 1584014714687
199, 10573.51, 6832.77, -52412.36, -70107.88, -42984.59, -46280.65, -69141.61, -63820.51, 0.000, 0.000, 0.000, 13:05:14.687, 1584014714687
200, 19184.35, 9260.73, -52373.24, -69835.54, -45410.83, -44474.80, -70978.68, -59050.51, 0.000, 0.000, 0.000, 13:05:14.687, 1584014714687
201, 21144.26, 8989.18, -52232.72, -70332.04, -44752.64, -45851.63, -69443.20, -58596.75, 0.000, 0.000, 0.000, 13:05:14.687, 1584014714687
202, 14789.01, 6792.11, -52162.64, -70831.91, -42018.66, -48047.66, -66908.02, -62325.11, 0.000, 0.000, 0.000, 13:05:14.687, 1584014714687
203, 8675.81, 5488.29, -52248.30, -70609.47, -40979.39, -48257.93, -66811.35, -65854.09, 0.000, 0.000, 0.000, 13:05:14.687, 1584014714687
204, 10645.22, 6841.27, -52411.06, -70107.34, -42965.10, -46273.77, -69158.40, -63799.83, 0.000, 0.000, 0.000, 13:05:14.687, 1584014714687
205, 19281.87, 9267.84, -52376.10, -69837.17, -45390.60, -44469.20, -70989.12, -59036.32, 0.030, 0.882, 0.420, 13:05:14.687, 1584014714687
206, 21231.94, 8986.38, -52245.39, -70338.91, -44711.91, -45853.02, -69442.27, -58584.68, 0.000, 0.000, 0.000, 13:05:14.687, 1584014714687
207, 14853.81, 6786.57, -52177.82, -70840.05, -41977.76, -48053.05, -66904.18, -62306.22, 0.000, 0.000, 0.000, 13:05:14.687, 1584014714687
208, 8733.90, 5485.79, -52255.65, -70610.19, -40948.21, -48257.46, -66798.50, -65831.83, 0.000, 0.000, 0.000, 13:05:14.687, 1584014714687
209, 10729.95, 6842.72, -52411.66, -70103.95, -42929.81, -46269.36, -69133.61, -63771.80, 0.000, 0.000, 0.000, 13:05:14.687, 1584014714687
210, 19417.99, 9269.89, -52373.11, -69838.31, -45338.66, -44469.55, -70948.32, -58999.86, 0.000, 0.000, 0.000, 13:05:14.687, 1584014714687
211, 21373.63, 8989.29, -52240.88, -70337.95, -44667.75, -45859.95, -69397.65, -58553.57, 0.000, 0.000, 0.000, 13:05:14.687, 1584014714687
212, 14940.89, 6786.03, -52171.65, -70834.09, -41968.50, -48057.03, -66873.18, -62298.22, 0.000, 0.000, 0.000, 13:05:14.687, 1584014714687
213, 8821.41, 5481.30, -52258.18, -70614.08, -40926.11, -48255.98, -66761.98, -65804.65, 0.000, 0.000, 0.000, 13:05:14.687, 1584014714687
214, 10856.82, 6843.79, -52412.09, -70111.59, -42888.57, -46264.13, -69088.39, -63728.55, 0.000, 0.000, 0.000, 13:05:14.688, 1584014714688
215, 19600.91, 9274.05, -52370.14, -69843.99, -45275.18, -44453.01, -70887.46, -58935.47, 0.032, 0.880, 0.418, 13:05:14.688, 1584014714688
216, 21541.65, 8987.55, -52244.54, -70344.38, -44617.23, -45850.91, -69358.22, -58503.32, 0.000, 0.000, 0.000, 13:05:14.688, 1584014714688
217, 15054.95, 6779.64, -52179.34, -70840.43, -41942.51, -48056.99, -66859.25, -62275.49, 0.000, 0.000, 0.000, 13:05:14.688, 1584014714688
218, 8884.10, 5479.89, -52258.40, -70611.82, -40932.39, -48248.96, -66768.41, -65808.88, 0.000, 0.000, 0.000, 13:05:14.688, 1584014714688
219, 10951.44, 6842.03, -52410.28, -70114.54, -42866.98, -46243.05, -69074.84, -63712.86, 0.000, 0.000, 0.000, 13:05:14.688, 1584014714688
220, 19767.86, 9278.57, -52371.52, -69852.35, -45206.87, -44435.69, -70854.94, -58890.05, 0.000, 0.000, 0.000, 13:05:14.688, 1584014714688
221, 21732.51, 8996.06, -52249.17, -70349.59, -44527.09, -45844.14, -69323.73, -58450.48, 0.000, 0.000, 0.000, 13:05:14.688, 1584014714688
222, 15238.93, 6791.69, -52180.73, -70841.26, -41851.16, -48049.75, -66829.45, -62226.38, 0.000, 0.000, 0.000, 13:05:14.688, 1584014714688
223, 9039.22, 5494.42, -52250.84, -70606.48, -40864.35, -48245.84, -66746.69, -65775.41, 0.000, 0.000, 0.000, 13:05:14.688, 1584014714688
224, 11124.98, 6857.76, -52394.23, -70107.79, -42793.08, -46235.18, -69028.60, -63678.08, 0.000, 0.000, 0.000, 13:05:14.688, 1584014714688
225, 20027.30, 9294.35, -52353.68, -69850.88, -45084.85, -44420.71, -70766.38, -58828.20, 0.026, 0.882, 0.428, 13:05:14.688, 1584014714688
226, 22022.08, 9008.22, -52237.75, -70352.23, -44393.80, -45834.73, -69228.91, -58388.32, 0.000, 0.000, 0.000, 13:05:14.688, 1584014714688
227, 15485.02, 6796.85, -52177.06, -70844.19, -41755.36, -48051.31, -66762.73, -62192.36, 0.000, 0.000, 0.000, 13:05:14.688, 1584014714688
228, 9282.30, 5492.92, -52253.14, -70616.18, -40778.54, -48240.90, -66690.96, -65735.63, 0.000, 0.000, 0.000, 13:05:14.688, 1584014714688
229, 11401.38, 6857.96, -52399.28, -70120.98, -42708.46, -46239.10, -68986.58, -63623.72, 0.000, 0.000, 0.000, 13:05:14.688, 1584014714688
230, 20283.18, 9295.82, -52356.52, -69860.02, -45047.19, -44452.63, -70761.51, -58808.85, 0.000, 0.000, 0.000, 13:05:14.688, 1584014714688
231, 22223.18, 9006.59, -52241.88, -70357.41, -44404.02, -45864.01, -69256.41, -58383.40, 0.000, 0.000, 0.000, 13:05:14.688, 1584014714688
232, 15601.58, 6791.11, -52189.49, -70849.55, -41818.68, -48085.04, -66827.09, -62200.34, 0.000, 0.000, 0.000, 13:05:14.688, 1584014714688
233, 9315.65, 5487.82, -52261.64, -70618.57, -40871.77, -48270.54, -66759.85, -65760.82, 0.000, 0.000, 0.000, 13:05:14.688, 1584014714688
234, 11414.37, 6857.83, -52401.03, -70119.68, -42785.24, -46254.16, -69030.77, -63645.76, 0.000, 0.000, 0.000, 13:05:14.688, 1584014714688
235, 20312.82, 9301.52, -52358.38, -69856.59, -45100.50, -44448.54, -70785.13, -58822.84, 0.024, 0.880, 0.432, 13:05:14.688, 1584014714688
236, 22186.54, 9010.46, -52248.70, -70350.37, -44491.23, -45866.67, -69303.91, -58435.59, 0.000, 0.000, 0.000, 13:05:14.688, 1584014714688
237, 15499.46, 6786.79, -52187.32, -70840.63, -41912.49, -48080.43, -66867.77, -62263.11, 0.000, 0.000, 0.000, 13:05:14.688, 1584014714688
238, 9222.96, 5484.16, -52255.79, -70607.41, -40929.80, -48255.00, -66768.88, -65795.40, 0.000, 0.000, 0.000, 13:05:14.688, 1584014714688
239, 11372.92, 6854.48, -52395.59, -70113.33, -42801.40, -46235.43, -69018.36, -63660.36, 0.000, 0.000, 0.000, 13:05:14.688, 1584014714688
240, 20340.42, 9301.05, -52348.43, -69851.91, -45075.06, -44433.10, -70758.11, -58814.05, 0.000, 0.000, 0.000, 13:05:14.688, 1584014714688
241, 22219.51, 9010.99, -52241.75, -70342.52, -44463.96, -45854.85, -69294.85, -58412.93, 0.000, 0.000, 0.000, 13:05:14.688, 1584014714688
242, 15453.12, 6784.63, -52190.88, -70832.77, -41949.48, -48080.88, -66911.60, -62267.64, 0.000, 0.000, 0.000, 13:05:14.688, 1584014714688
243, 9097.03, 5482.06, -52254.13, -70600.66, -41035.92, -48255.31, -66851.41, -65827.83, 0.000, 0.000, 0.000, 13:05:14.688, 1584014714688
244, 11231.08, 6858.59, -52384.11, -70102.51, -42915.93, -46236.53, -69083.12, -63694.49, 0.000, 0.000, 0.000, 13:05:14.688, 1584014714688
245, 20234.72, 9301.05, -52344.54, -69846.27, -45151.73, -44432.99, -70792.98, -58832.29, 0.026, 0.884, 0.430, 13:05:14.688, 1584014714688
246, 22122.79, 9005.18, -52242.86, -70342.21, -44520.09, -45855.59, -69321.41, -58422.21, 0.000, 0.000, 0.000, 13:05:14.688, 1584014714688
247, 15312.15, 6780.87, -52185.98, -70827.98, -42016.70, -48088.37, -66945.91, -62294.87, 0.000, 0.000, 0.000, 13:05:14.688, 1584014714688
248, 8958.83, 5478.57, -52251.07, -70597.06, -41080.20, -48243.18, -66857.95, -65836.93, 0.000, 0.000, 0.000, 13:05:14.688, 1584014714688
249, 11139.33, 6858.95, -52388.31, -70104.88, -42922.97, -46226.94, -69067.42, -63685.46, 0.000, 0.000, 0.000, 13:05:14.688, 1584014714688
250, 20184.36, 9308.29, -52344.70, -69847.77, -45139.17, -44421.72, -70769.66, -58822.48, 0.000, 0.000, 0.000, 13:05:14.688, 1584014714688
251, 22070.96, 9006.77, -52251.98, -70347.60, -44516.29, -45851.94, -69312.78, -58420.66, 0.000, 0.000, 0.000, 13:05:14.688, 1584014714688
252, 15223.12, 6774.50, -52196.77, -70833.68, -42035.38, -48089.35, -66954.47, -62301.39, 0.000, 0.000, 0.000, 13:05:14.688, 1584014714688
253, 8844.12, 5478.77, -52255.74, -70594.79, -41116.99, -48242.98, -66878.14, -65848.05, 0.000, 0.000, 0.000, 13:05:14.688, 1584014714688
254, 11036.13, 6860.38, -52382.18, -70102.73, -42957.73, -46216.43, -69079.18, -63697.02, 0.026, 0.884, 0.434, 13:05:14.688, 1584014714688
255, 20119.10, 9306.01, -52339.54, -69849.91, -45149.27, -44416.36, -70764.39, -58829.39, 0.000, 0.000, 0.000, 13:05:14.688, 1584014714688
0, 21979.88, 9003.04, -52253.82, -70344.34, -44540.30, -45857.71, -69325.99, -58448.83, 0.000, 0.000, 0.000, 13:05:14.688, 1584014714688
1, 15083.14, 6769.25, -52196.93, -70827.55, -42086.90, -48089.46, -66982.88, -62342.16, 0.000, 0.000, 0.000, 13:05:14.688, 1584014714688
2, 8714.03, 5474.10, -52257.13, -70593.83, -41174.88, -48235.64, -66910.33, -65862.95, 0.000, 0.000, 0.000, 13:05:14.688, 1584014714688
3, 10932.89, 6854.18, -52381.63, -70105.75, -42997.69, -46222.31, -69102.90, -63701.26, 0.000, 0.000, 0.000, 13:05:14.688, 1584014714688
4, 20050.65, 9302.35, -52338.42, -69854.38, -45171.58, -44429.16, -70779.19, -58826.26, 0.000, 0.000, 0.000, 13:05:14.688, 1584014714688
5, 21901.96, 9002.14, -52247.29, -70342.99, -44575.12, -45865.93, -69348.01, -58449.45, 0.000, 0.000, 0.000, 13:05:14.688, 1584014714688
6, 14973.99, 6764.44, -52195.37, -70826.64, -42145.60, -48094.22, -67017.44, -62352.98, 0.000, 0.000, 0.000, 13:05:14.688, 1584014714688
7, 8568.92, 5466.63, -52248.92, -70593.49, -41250.84, -48241.23, -66944.57, -65892.09, 0.000, 0.000, 0.000, 13:05:14.688, 1584014714688
8, 10780.16, 6848.91, -52371.57, -70103.05, -43074.63, -46220.12, -69130.68, -63733.98, 0.026, 0.882, 0.430, 13:05:14.688, 1584014714688
9, 19918.04, 9295.02, -52334.80, -69854.38, -45233.22, -44422.23, -70799.51, -58851.38, 0.000, 0.000, 0.000, 13:05:14.688, 1584014714688
10, 21740.20, 8989.07, -52247.22, -70346.13, -44645.71, -45871.05, -69378.60, -58488.95, 0.000, 0.000, 0.000, 13:05:14.688, 1584014714688
11, 14759.79, 6749.69, -52190.74, -70826.24, -42228.68, -48101.54, -67055.21, -62404.14, 0.000, 0.000, 0.000, 13:05:14.688, 1584014714688
12, 8360.09, 5454.94, -52246.69, -70592.33, -41315.68, -48234.75, -66971.41, -65916.88, 0.000, 0.000, 0.000, 13:05:14.688, 1584014714688
13, 10613.86, 6836.26, -52370.34, -70105.55, -43101.92, -46207.58, -69141.77, -63734.37, 0.000, 0.000, 0.000, 13:05:14.688, 1584014714688
14, 19779.48, 9281.07, -52327.69, -69856.28, -45228.57, -44410.95, -70804.45, -58857.91, 0.000, 0.000, 0.000, 13:05:14.688, 1584014714688
15, 21609.44, 8973.69, -52247.54, -70347.33, -44626.17, -45855.41, -69380.64, -58501.44, 0.000, 0.000, 0.000, 13:05:14.688, 1584014714688
16, 14626.78, 6734.94, -52198.81, -70828.90, -42217.88, -48095.86, -67064.89, -62418.09, 0.000, 0.000, 0.000, 13:05:14.688, 1584014714688
17, 8249.00, 5442.85, -52251.07, -70595.10, -41305.60, -48234.62, -66981.58, -65915.23, 0.000, 0.000, 0.000, 13:05:14.688, 1584014714688
18, 10512.56, 6832.73, -52369.87, -70103.38, -43102.41, -46217.15, -69155.63, -63744.76, 0.028, 0.886, 0.432, 13:05:14.688, 1584014714688
19, 19690.32, 9280.49, -52322.04, -69854.25, -45225.71, -44416.38, -70803.15, -58880.91, 0.000, 0.000, 0.000, 13:05:14.688, 1584014714688
20, 21508.84, 8974.40, -52240.70, -70344.80, -44625.46, -45866.02, -69378.00, -58531.24, 0.000, 0.000, 0.000, 13:05:14.689, 1584014714689
21, 14494.86, 6741.08, -52189.42, -70816.88, -42250.85, -48103.59, -67072.17, -62454.68, 0.000, 0.000, 0.000, 13:05:14.689, 1584014714689
22, 8103.16, 5452.17, -52244.90, -70582.31, -41359.00, -48228.85, -66992.78, -65950.54, 0.000, 0.000, 0.000, 13:05:14.689, 1584014714689
23, 10392.76, 6836.37, -52375.57, -70100.23, -43141.86, -46209.82, -69163.31, -63769.52, 0.000, 0.000, 0.000, 13:05:14.689, 1584014714689
24, 19561.17, 9282.79, -52332.52, -69847.32, -45274.44, -44428.54, -70824.95, -58929.37, 0.000, 0.000, 0.000, 13:05:14.689, 1584014714689
25, 21350.47, 8969.15, -52250.31, -70335.06, -44673.78, -45864.35, -69396.11, -58586.27, 0.000, 0.000, 0.000, 13:05:14.689, 1584014714689
26, 14376.46, 6727.81, -52209.67, -70822.48, -42258.48, -48092.44, -67078.34, -62463.47, 0.000, 0.000, 0.000, 13:05:14.689, 1584014714689
27, 7989.99, 5444.15, -52269.78, -70582.00, -41379.38, -48226.59, -67024.23, -65960.38, 0.000, 0.000, 0.000, 13:05:14.689, 1584014714689
28, 10280.55, 6833.13, -52385.71, -70092.90, -43164.66, -46202.77, -69196.06, -63787.50, 0.028, 0.886, 0.430, 13:05:14.689, 1584014714689
29, 19491.53, 9279.35, -52335.25, -69845.65, -45260.05, -44413.79, -70834.82, -58929.01, 0.000, 0.000, 0.000, 13:05:14.689, 1584014714689
30, 21291.60, 8957.24, -52259.70, -70339.55, -44635.63, -45866.31, -69394.92, -58580.72, 0.000, 0.000, 0.000, 13:05:14.689, 1584014714689
31, 14280.48, 6715.13, -52214.10, -70822.55, -42254.14, -48104.21, -67091.58, -62481.30, 0.000, 0.000, 0.000, 13:05:14.689, 1584014714689
32, 7923.45, 5440.53, -52265.84, -70584.05, -41374.29, -48219.33, -67027.76, -65952.82, 0.000, 0.000, 0.000, 13:05:14.689, 1584014714689
33, 10264.28, 6831.65, -52386.95, -70101.28, -43141.14, -46194.04, -69193.45, -63760.11, 0.000, 0.000, 0.000, 13:05:14.689, 1584014714689
34, 19479.86, 9271.59, -52346.00, -69860.29, -45236.26, -44420.11, -70834.95, -58919.55, 0.000, 0.000, 0.000, 13:05:14.689, 1584014714689
35, 21254.07, 8941.30, -52271.27, -70355.55, -44627.80, -45875.77, -69393.09, -58592.04, 0.000, 0.000, 0.000, 13:05:14.689, 1584014714689
36, 14230.04, 6701.97, -52225.52, -70831.24, -42264.98, -48109.42, -67089.70, -62496.30, 0.000, 0.000, 0.000, 13:05:14.689, 1584014714689
37, 7875.66, 5432.46, -52269.46, -70583.25, -41394.45, -48210.43, -67024.84, -65960.87, 0.026, 0.882, 0.428, 13:05:14.689, 1584014714689
38, 10224.83, 6820.88, -52387.64, -70103.27, -43152.95, -46184.98, -69183.30, -63767.71, 0.000, 0.000, 0.000, 13:05:14.689, 1584014714689
39, 19464.23, 9261.07, -52349.95, -69864.55, -45225.45, -44418.79, -70815.64, -58916.45, 0.000, 0.000, 0.000, 13:05:15.167, 1584014715167
40, 21242.16, 8936.43, -52272.88, -70352.13, -44599.86, -45868.77, -69367.36, -58577.08, 0.000, 0.000, 0.000, 13:05:15.167, 1584014715167
41, 14227.98, 6703.31, -52226.13, -70826.98, -42240.79, -48094.67, -67063.45, -62468.52, 0.000, 0.000, 0.000, 13:05:15.167, 1584014715167
42, 7864.39, 5441.29, -52274.80, -70578.40, -41402.94, -48202.47, -67015.60, -65943.84, 0.000, 0.000, 0.000, 13:05:15.167, 1584014715167
43, 10218.59, 6832.53, -52392.78, -70100.37, -43160.90, -46186.68, -69175.98, -63753.43, 0.000, 0.000, 0.000, 13:05:15.167, 1584014715167
44, 19457.26, 9266.32, -52352.05, -69867.10, -45222.03, -44427.36, -70806.88, -58921.57, 0.000, 0.000, 0.000, 13:05:15.167, 1584014715167
45, 21199.04, 8936.29, -52271.90, -70352.09, -44603.53, -45877.00, -69358.80, -58617.54, 0.000, 0.000, 0.000, 13:05:15.167, 1584014715167
46, 14186.32, 6703.38, -52224.67, -70829.41, -42238.94, -48101.33, -67051.74, -62502.70, 0.000, 0.000, 0.000, 13:05:15.167, 1584014715167
47, 7862.25, 5446.90, -52274.45, -70583.48, -41388.12, -48204.64, -67002.52, -65947.48, 0.030, 0.884, 0.434, 13:05:15.167, 1584014715167
48, 10223.96, 6843.08, -52390.14, -70098.60, -43161.17, -46184.20, -69178.87, -63766.26, 0.000, 0.000, 0.000, 13:05:15.167, 1584014715167
49, 19467.12, 9277.40, -52345.48, -69860.51, -45216.75, -44419.31, -70801.90, -58937.99, 0.000, 0.000, 0.000, 13:05:15.167, 1584014715167
50, 21196.87, 8938.75, -52268.88, -70347.58, -44580.80, -45872.50, -69345.77, -58626.37, 0.000, 0.000, 0.000, 13:05:15.167, 1584014715167
51, 14192.71, 6702.46, -52227.69, -70825.16, -42206.37, -48090.07, -67042.58, -62486.80, 0.000, 0.000, 0.000, 13:05:15.167, 1584014715167
52, 7885.58, 5448.15, -52283.99, -70580.34, -41361.70, -48188.28, -67008.90, -65905.28, 0.000, 0.000, 0.000, 13:05:15.167, 1584014715167
53, 10251.76, 6844.86, -52400.51, -70099.13, -43147.43, -46174.14, -69192.52, -63724.57, 0.000, 0.000, 0.000, 13:05:15.167, 1584014715167
54, 19502.92, 9278.90, -52353.17, -69865.72, -45206.07, -44416.94, -70810.30, -58911.95, 0.000, 0.000, 0.000, 13:05:15.167, 1584014715167
55, 21228.21, 8935.18, -52274.40, -70360.20, -44559.00, -45870.41, -69335.20, -58616.26, 0.000, 0.000, 0.000, 13:05:15.167, 1584014715167
56, 14216.98, 6698.91, -52227.15, -70838.35, -42193.86, -48091.68, -67032.12, -62486.40, 0.000, 0.000, 0.000, 13:05:15.167, 1584014715167
57, 7917.19, 5455.01, -52275.30, -70587.86, -41366.55, -48185.80, -67004.90, -65889.01, 0.028, 0.878, 0.428, 13:05:15.167, 1584014715167
58, 10289.47, 6860.17, -52384.22, -70097.44, -43158.33, -46166.72, -69187.34, -63705.09, 0.000, 0.000, 0.000, 13:05:15.168, 1584014715168
59, 19529.19, 9290.39, -52339.49, -69861.29, -45211.16, -44413.25, -70800.87, -58914.19, 0.000, 0.000, 0.000, 13:05:15.168, 1584014715168
60, 21220.12, 8937.32, -52268.79, -70355.48, -44568.35, -45873.87, -69320.76, -58654.80, 0.000, 0.000, 0.000, 13:05:15.168, 1584014715168
61, 14211.15, 6699.76, -52226.01, -70833.50, -42194.71, -48091.65, -67005.74, -62519.73, 0.000, 0.000, 0.000, 13:05:15.168, 1584014715168
62, 7955.43, 5461.89, -52271.39, -70581.46, -41349.18, -48165.59, -66962.80, -65873.77, 0.000, 0.000, 0.000, 13:05:15.168, 1584014715168
63, 10386.97, 6862.97, -52382.86, -70098.38, -43110.41, -46148.44, -69129.96, -63649.18, 0.000, 0.000, 0.000, 13:05:15.168, 1584014715168
64, 19639.36, 9289.23, -52338.13, -69862.41, -45156.60, -44409.99, -70744.70, -58872.01, 0.000, 0.000, 0.000, 13:05:15.168, 1584014715168
65, 21338.14, 8937.99, -52256.19, -70347.20, -44496.53, -45854.16, -69254.87, -58606.25, 0.000, 0.000, 0.000, 13:05:15.168, 1584014715168
66, 14338.08, 6703.67, -52214.77, -70821.92, -42121.01, -48067.49, -66951.09, -62458.35, 0.000, 0.000, 0.000, 13:05:15.168, 1584014715168
67, 8064.33, 5465.49, -52266.91, -70571.25, -41300.86, -48152.07, -66942.04, -65824.14, 0.028, 0.880, 0.432, 13:05:15.168, 1584014715168
68, 10477.09, 6870.05, -52375.19, -70084.52, -43081.40, -46146.29, -69130.45, -63617.76, 0.000, 0.000, 0.000, 13:05:15.168, 1584014715168
69, 19714.77, 9297.10, -52320.09, -69845.02, -45136.20, -44400.93, -70747.05, -58847.87, 0.000, 0.000, 0.000, 13:05:15.168, 1584014715168
70, 21396.27, 8940.90, -52240.36, -70334.74, -44473.89, -45850.04, -69260.14, -58586.34, 0.000, 0.000, 0.000, 13:05:15.168, 1584014715168
71, 14371.14, 6707.04, -52197.45, -70809.20, -42116.65, -48069.21, -66964.35, -62449.30, 0.000, 0.000, 0.000, 13:05:15.168, 1584014715168
72, 8110.51, 5477.00, -52243.47, -70553.23, -41300.37, -48145.30, -66952.28, -65795.35, 0.000, 0.000, 0.000, 13:05:15.168, 1584014715168
73, 10530.67, 6880.22, -52360.14, -70073.16, -43088.71, -46137.04, -69150.28, -63589.44, 0.000, 0.000, 0.000, 13:05:15.168, 1584014715168
74, 19770.81, 9299.51, -52318.77, -69844.55, -45132.89, -44406.03, -70769.55, -58829.63, 0.000, 0.000, 0.000, 13:05:15.168, 1584014715168
75, 21416.90, 8938.60, -52239.98, -70332.58, -44479.05, -45863.18, -69281.82, -58582.45, 0.000, 0.000, 0.000, 13:05:15.168, 1584014715168
76, 14399.95, 6702.15, -52205.07, -70813.99, -42109.41, -48076.41, -66977.07, -62427.26, 0.032, 0.884, 0.426, 13:05:15.168, 1584014715168
77, 8142.49, 5475.91, -52258.93, -70558.48, -41310.98, -48150.73, -66974.85, -65775.66, 0.000, 0.000, 0.000, 13:05:15.168, 1584014715168
78, 10561.36, 6881.61, -52370.34, -70076.45, -43107.21, -46138.69, -69164.27, -63575.96, 0.000, 0.000, 0.000, 13:05:15.168, 1584014715168
79, 19774.34, 9299.82, -52322.53, -69845.58, -45159.17, -44410.97, -70775.88, -58837.79, 0.000, 0.000, 0.000, 13:05:15.168, 1584014715168
80, 21390.60, 8937.01, -52245.73, -70332.82, -44502.63, -45868.91, -69280.33, -58603.75, 0.000, 0.000, 0.000, 13:05:15.168, 1584014715168
81, 14337.08, 6701.48, -52197.85, -70805.07, -42150.94, -48078.98, -66973.60, -62470.15, 0.000, 0.000, 0.000, 13:05:15.168, 1584014715168
82, 8118.65, 5479.82, -52250.73, -70556.54, -41329.74, -48143.78, -66953.20, -65779.64, 0.000, 0.000, 0.000, 13:05:15.168, 1584014715168
83, 10543.63, 6881.12, -52369.73, -70083.80, -43133.93, -46146.20, -69156.07, -63586.31, 0.000, 0.000, 0.000, 13:05:15.168, 1584014715168
84, 19784.85, 9293.94, -52322.95, -69856.17, -45156.38, -44416.47, -70752.19, -58832.05, 0.000, 0.000, 0.000, 13:05:15.168, 1584014715168
85, 21425.33, 8928.40, -52243.25, -70343.28, -44461.84, -45871.07, -69235.55, -58589.84, 0.000, 0.000, 0.000, 13:05:15.168, 1584014715168
86, 14393.12, 6694.24, -52193.58, -70813.95, -42095.64, -48087.95, -66932.27, -62463.33, 0.040, 0.884, 0.430, 13:05:15.168, 1584014715168
87, 8206.96, 5480.45, -52246.84, -70564.09, -41277.90, -48141.57, -66925.30, -65766.67, 0.000, 0.000, 0.000, 13:05:15.168, 1584014715168
88, 10672.20, 6894.48, -52359.03, -70083.47, -43073.89, -46136.73, -69124.87, -63559.82, 0.000, 0.000, 0.000, 13:05:15.168, 1584014715168
89, 19891.89, 9309.28, -52310.95, -69849.76, -45121.82, -44402.84, -70734.87, -58828.87, 0.000, 0.000, 0.000, 13:05:15.169, 1584014715169
90, 21476.81, 8933.84, -52238.06, -70339.13, -44462.51, -45866.49, -69242.28, -58609.38, 0.000, 0.000, 0.000, 13:05:15.169, 1584014715169
91, 14413.43, 6697.99, -52194.47, -70811.28, -42121.91, -48074.93, -66957.13, -62479.88, 0.000, 0.000, 0.000, 13:05:15.169, 1584014715169
92, 8236.71, 5487.31, -52256.10, -70564.23, -41305.44, -48125.11, -66958.98, -65756.69, 0.000, 0.000, 0.000, 13:05:15.169, 1584014715169
93, 10669.36, 6903.22, -52365.40, -70075.80, -43125.25, -46124.07, -69176.45, -63565.83, 0.000, 0.000, 0.000, 13:05:15.169, 1584014715169
94, 19852.80, 9309.72, -52315.64, -69849.34, -45175.91, -44400.29, -70788.06, -58859.61, 0.000, 0.000, 0.000, 13:05:15.169, 1584014715169
95, 21401.93, 8928.16, -52240.18, -70339.64, -44516.40, -45864.48, -69289.71, -58652.25, 0.000, 0.000, 0.000, 13:05:15.169, 1584014715169
96, 14328.09, 6688.71, -52195.59, -70814.91, -42178.50, -48081.66, -67004.42, -62525.96, 0.034, 0.884, 0.430, 13:05:15.169, 1584014715169
97, 8165.29, 5484.02, -52252.72, -70560.63, -41367.36, -48118.32, -67001.59, -65787.10, 0.000, 0.000, 0.000, 13:05:15.169, 1584014715169
98, 10602.06, 6897.97, -52364.46, -70073.97, -43173.98, -46120.75, -69206.03, -63587.16, 0.000, 0.000, 0.000, 13:05:15.169, 1584014715169
99, 19772.69, 9299.38, -52317.74, -69848.73, -45213.98, -44410.32, -70806.10, -58878.52, 0.000, 0.000, 0.000, 13:05:15.169, 1584014715169
100, 21303.22, 8918.12, -52241.21, -70336.87, -44543.20, -45871.46, -69298.77, -58673.30, 0.000, 0.000, 0.000, 13:05:15.169, 1584014715169
101, 14219.35, 6687.71, -52193.80, -70806.32, -42206.11, -48086.51, -67006.80, -62553.32, 0.000, 0.000, 0.000, 13:05:15.169, 1584014715169
102, 8084.38, 5487.20, -52247.40, -70553.16, -41384.57, -48113.49, -66993.70, -65796.63, 0.000, 0.000, 0.000, 13:05:15.169, 1584014715169
103, 10555.59, 6900.50, -52364.59, -70075.51, -43175.21, -46118.29, -69190.07, -63577.28, 0.000, 0.000, 0.000, 13:05:15.169, 1584014715169
104, 19727.04, 9299.33, -52318.55, -69851.26, -45209.11, -44406.25, -70786.95, -58865.82, 0.000, 0.000, 0.000, 13:05:15.169, 1584014715169
105, 21259.93, 8912.74, -52244.74, -70341.88, -44525.14, -45870.83, -69271.05, -58653.46, 0.000, 0.000, 0.000, 13:05:15.169, 1584014715169
106, 14205.72, 6676.44, -52206.68, -70816.23, -42176.78, -48087.52, -66979.48, -62521.85, 0.030, 0.888, 0.426, 13:05:15.169, 1584014715169
107, 8052.84, 5481.68, -52260.34, -70556.23, -41395.74, -48118.34, -66989.77, -65795.58, 0.000, 0.000, 0.000, 13:05:15.169, 1584014715169
108, 10520.92, 6893.01, -52373.80, -70078.23, -43193.31, -46114.98, -69185.42, -63583.47, 0.000, 0.000, 0.000, 13:05:15.169, 1584014715169
109, 19707.33, 9286.30, -52334.24, -69862.99, -45206.58, -44403.73, -70776.77, -58863.03, 0.000, 0.000, 0.000, 13:05:15.169, 1584014715169
110, 21225.57, 8900.06, -52251.80, -70350.15, -44524.65, -45864.23, -69265.46, -58658.44, 0.000, 0.000, 0.000, 13:05:15.169, 1584014715169
111, 14155.31, 6666.07, -52205.74, -70820.77, -42195.15, -48083.81, -66982.41, -62540.67, 0.000, 0.000, 0.000, 13:05:15.169, 1584014715169
112, 8037.49, 5479.17, -52257.62, -70562.02, -41407.43, -48099.54, -66989.30, -65783.41, 0.000, 0.000, 0.000, 13:05:15.169, 1584014715169
113, 10547.94, 6895.00, -52374.43, -70089.46, -43188.91, -46092.58, -69181.46, -63547.88, 0.000, 0.000, 0.000, 13:05:15.169, 1584014715169
114, 19727.07, 9290.19, -52331.78, -69868.31, -45217.87, -44394.65, -70784.10, -58846.06, 0.000, 0.000, 0.000, 13:05:15.169, 1584014715169
115, 21193.88, 8901.89, -52252.88, -70351.11, -44555.00, -45857.69, -69289.31, -58680.01, 0.034, 0.882, 0.428, 13:05:15.169, 1584014715169
116, 14125.61, 6667.95, -52210.54, -70825.77, -42200.98, -48066.55, -67000.24, -62553.28, 0.000, 0.000, 0.000, 13:05:15.169, 1584014715169
117, 8018.82, 5485.81, -52265.77, -70566.40, -41404.50, -48083.50, -67011.58, -65789.54, 0.000, 0.000, 0.000, 13:05:15.169, 1584014715169
118, 10510.01, 6905.66, -52379.77, -70087.11, -43203.80, -46090.30, -69213.11, -63573.30, 0.000, 0.000, 0.000, 13:05:15.169, 1584014715169
119, 19687.51, 9300.09, -52331.63, -69866.95, -45224.95, -44391.88, -70806.68, -58872.55, 0.000, 0.000, 0.000, 13:05:15.169, 1584014715169
120, 21150.47, 8906.19, -52250.66, -70346.80, -44551.09, -45866.36, -69303.34, -58706.09, 0.000, 0.000, 0.000, 13:05:15.170, 1584014715170
121, 14076.06, 6664.28, -52203.13, -70817.34, -42197.21, -48068.21, -67004.31, -62577.98, 0.000, 0.000, 0.000, 13:05:15.170, 1584014715170
122, 8002.48, 5484.85, -52263.43, -70558.20, -41396.28, -48081.44, -67012.31, -65785.88, 0.000, 0.000, 0.000, 13:05:15.170, 1584014715170
123, 10518.86, 6907.23, -52372.95, -70077.77, -43195.55, -46086.90, -69211.26, -63554.84, 0.000, 0.000, 0.000, 13:05:15.170, 1584014715170
124, 19701.61, 9298.84, -52326.01, -69854.77, -45208.17, -44388.46, -70786.27, -58853.39, 0.000, 0.000, 0.000, 13:05:15.170, 1584014715170
125, 21192.43, 8899.24, -52248.03, -70343.82, -44511.96, -45855.70, -69258.06, -58658.51, 0.038, 0.880, 0.418, 13:05:15.170, 1584014715170
126, 14105.38, 6661.56, -52199.97, -70809.72, -42190.86, -48082.09, -66982.37, -62549.61, 0.000, 0.000, 0.000, 13:05:15.170, 1584014715170
127, 8020.59, 5483.13, -52248.95, -70545.63, -41409.67, -48082.89, -66991.95, -65771.44, 0.000, 0.000, 0.000, 13:05:15.170, 1584014715170
128, 10538.65, 6908.95, -52357.42, -70064.76, -43217.75, -46082.34, -69187.50, -63545.05, 0.000, 0.000, 0.000, 13:05:15.170, 1584014715170
129, 19729.59, 9296.78, -52315.60, -69851.08, -45225.76, -44385.20, -70762.67, -58835.63, 0.000, 0.000, 0.000, 13:05:15.170, 1584014715170
130, 21187.58, 8893.00, -52241.41, -70339.77, -44532.36, -45862.18, -69248.30, -58665.01, 0.000, 0.000, 0.000, 13:05:15.170, 1584014715170
131, 14094.70, 6656.53, -52196.02, -70809.30, -42202.53, -48079.32, -66975.57, -62558.15, 0.000, 0.000, 0.000, 13:05:15.170, 1584014715170
132, 8012.05, 5483.37, -52249.79, -70546.48, -41425.47, -48081.30, -67002.73, -65773.38, 0.000, 0.000, 0.000, 13:05:15.170, 1584014715170
133, 10538.22, 6905.79, -52364.05, -70071.98, -43217.30, -46079.06, -69201.38, -63537.56, 0.000, 0.000, 0.000, 13:05:15.170, 1584014715170
134, 19707.04, 9290.12, -52326.06, -69860.46, -45230.63, -44392.04, -70788.17, -58849.68, 0.000, 0.000, 0.000, 13:05:15.170, 1584014715170
135, 21119.31, 8883.66, -52245.88, -70343.48, -44546.71, -45859.90, -69278.24, -58702.63, 0.040, 0.882, 0.424, 13:05:15.170, 1584014715170
136, 14027.44, 6641.98, -52200.46, -70817.86, -42208.81, -48072.25, -67003.13, -62587.36, 0.000, 0.000, 0.000, 13:05:15.170, 1584014715170
137, 7978.21, 5473.56, -52255.05, -70554.95, -41419.93, -48071.31, -67021.68, -65779.73, 0.000, 0.000, 0.000, 13:05:15.170, 1584014715170
138, 10521.44, 6900.07, -52368.19, -70078.77, -43213.01, -46066.88, -69218.55, -63534.52, 0.000, 0.000, 0.000, 13:05:15.170, 1584014715170
139, 19711.47, 9290.48, -52325.34, -69863.98, -45223.86, -44384.44, -70801.88, -58826.37, 0.000, 0.000, 0.000, 13:05:15.170, 1584014715170
140, 21133.44, 8877.80, -52246.84, -70353.84, -44528.74, -45866.45, -69280.34, -58669.35, 0.000, 0.000, 0.000, 13:05:15.170, 1584014715170
141, 14047.76, 6634.06, -52202.81, -70825.34, -42185.16, -48088.57, -67003.69, -62562.87, 0.000, 0.000, 0.000, 13:05:15.170, 1584014715170
142, 7992.60, 5462.34, -52258.11, -70563.77, -41404.68, -48080.79, -67028.74, -65768.35, 0.000, 0.000, 0.000, 13:05:15.170, 1584014715170
143, 10546.07, 6891.78, -52373.91, -70086.10, -43200.31, -46075.37, -69219.30, -63515.36, 0.000, 0.000, 0.000, 13:05:15.170, 1584014715170
144, 19717.30, 9287.42, -52331.38, -69867.39, -45232.55, -44382.83, -70795.93, -58815.20, 0.000, 0.000, 0.000, 13:05:15.170, 1584014715170
145, 21134.76, 8877.64, -52251.09, -70351.87, -44529.12, -45855.47, -69257.26, -58654.60, 0.036, 0.880, 0.426, 13:05:15.170, 1584014715170
146, 14036.49, 6639.03, -52199.97, -70819.42, -42191.13, -48075.45, -66983.41, -62563.85, 0.000, 0.000, 0.000, 13:05:15.170, 1584014715170
147, 8005.99, 5477.43, -52260.30, -70558.91, -41409.22, -48064.03, -67012.07, -65757.06, 0.000, 0.000, 0.000, 13:05:15.170, 1584014715170
148, 10565.07, 6907.99, -52377.60, -70080.88, -43219.31, -46061.13, -69208.73, -63504.46, 0.000, 0.000, 0.000, 13:05:15.170, 1584014715170
149, 19758.07, 9300.09, -52331.51, -69868.96, -45223.77, -44368.64, -70770.36, -58785.93, 0.000, 0.000, 0.000, 13:05:15.170, 1584014715170
150, 21133.04, 8881.93, -52246.42, -70355.22, -44523.78, -45861.09, -69248.72, -58662.24, 0.000, 0.000, 0.000, 13:05:15.170, 1584014715170
151, 14006.74, 6635.76, -52195.81, -70821.03, -42203.04, -48083.88, -66988.69, -62594.63, 0.000, 0.000, 0.000, 13:05:15.171, 1584014715171
152, 7995.91, 5475.26, -52249.97, -70556.37, -41421.16, -48053.84, -67009.12, -65769.98, 0.000, 0.000, 0.000, 13:05:15.171, 1584014715171
153, 10580.67, 6911.11, -52361.29, -70075.78, -43220.58, -46039.27, -69198.41, -63495.31, 0.000, 0.000, 0.000, 13:05:15.171, 1584014715171
154, 19766.52, 9298.75, -52315.71, -69861.58, -45230.07, -44352.25, -70760.46, -58775.23, 0.036, 0.882, 0.432, 13:05:15.171, 1584014715171
155, 21117.21, 8872.10, -52233.14, -70346.88, -44531.13, -45851.81, -69238.15, -58664.48, 0.000, 0.000, 0.000, 13:05:15.171, 1584014715171
156, 13997.91, 6624.54, -52187.39, -70816.54, -42190.66, -48070.62, -66974.36, -62601.07, 0.000, 0.000, 0.000, 13:05:15.171, 1584014715171
157, 7995.91, 5471.44, -52249.73, -70551.52, -41414.29, -48041.86, -67010.57, -65777.49, 0.000, 0.000, 0.000, 13:05:15.171, 1584014715171
158, 10583.01, 6912.77, -52367.83, -70073.14, -43232.63, -46035.96, -69209.70, -63499.09, 0.000, 0.000, 0.000, 13:05:15.171, 1584014715171
159, 19755.77, 9303.13, -52324.80, -69859.70, -45254.32, -44355.38, -70777.91, -58784.21, 0.000, 0.000, 0.000, 13:05:15.648, 1584014715648
160, 21111.27, 8872.88, -52243.42, -70349.72, -44529.52, -45854.18, -69242.48, -58660.86, 0.000, 0.000, 0.000, 13:05:15.648, 1584014715648
161, 13977.42, 6620.70, -52204.04, -70821.25, -42196.45, -48088.03, -66999.20, -62615.44, 0.000, 0.000, 0.000, 13:05:15.648, 1584014715648
162, 7956.64, 5472.40, -52261.53, -70546.93, -41446.50, -48054.50, -67051.01, -65808.18, 0.000, 0.000, 0.000, 13:05:15.648, 1584014715648
163, 10538.80, 6919.61, -52368.28, -70062.16, -43273.18, -46040.17, -69242.59, -63526.07, 0.000, 0.000, 0.000, 13:05:15.648, 1584014715648
164, 19727.94, 9307.78, -52321.83, -69852.33, -45272.09, -44364.34, -70783.08, -58784.01, 0.032, 0.884, 0.430, 13:05:15.648, 1584014715648
165, 21065.65, 8870.20, -52244.96, -70348.07, -44535.89, -45872.98, -69241.27, -58661.26, 0.000, 0.000, 0.000, 13:05:15.648, 1584014715648
166, 13928.53, 6621.50, -52196.04, -70816.20, -42200.00, -48104.55, -66994.32, -62618.16, 0.000, 0.000, 0.000, 13:05:15.648, 1584014715648
167, 7926.51, 5476.20, -52256.14, -70542.73, -41456.20, -48067.40, -67054.16, -65799.17, 0.000, 0.000, 0.000, 13:05:15.648, 1584014715648
168, 10508.16, 6923.18, -52372.57, -70057.96, -43298.34, -46055.45, -69261.66, -63512.52, 0.000, 0.000, 0.000, 13:05:15.649, 1584014715649
169, 19674.99, 9311.33, -52332.76, -69848.13, -45325.78, -44378.36, -70822.53, -58766.47, 0.000, 0.000, 0.000, 13:05:15.649, 1584014715649
170, 20922.10, 8875.63, -52235.87, -70328.47, -44634.35, -45884.15, -69284.37, -58695.77, 0.000, 0.000, 0.000, 13:05:15.649, 1584014715649
171, 13795.34, 6623.00, -52183.86, -70800.13, -42250.65, -48103.03, -66986.77, -62641.95, 0.000, 0.000, 0.000, 13:05:15.649, 1584014715649
172, 7812.00, 5479.66, -52250.49, -70530.95, -41479.94, -48067.13, -67037.04, -65816.61, 0.000, 0.000, 0.000, 13:05:15.649, 1584014715649
173, 10408.18, 6929.58, -52360.66, -70048.15, -43306.30, -46049.64, -69233.90, -63527.75, 0.000, 0.000, 0.000, 13:05:15.649, 1584014715649
174, 19618.37, 9315.07, -52313.99, -69846.63, -45284.12, -44368.23, -70763.20, -58755.11, 0.034, 0.886, 0.430, 13:05:15.649, 1584014715649
175, 20944.84, 8869.80, -52229.30, -70341.41, -44529.05, -45876.62, -69207.41, -58637.25, 0.000, 0.000, 0.000, 13:05:15.649, 1584014715649
176, 13829.94, 6619.89, -52184.10, -70810.68, -42165.04, -48106.63, -66957.33, -62604.60, 0.000, 0.000, 0.000, 13:05:15.649, 1584014715649
177, 7856.44, 5483.89, -52244.16, -70533.34, -41425.09, -48056.38, -67036.97, -65782.48, 0.000, 0.000, 0.000, 13:05:15.649, 1584014715649
178, 10445.53, 6939.39, -52351.63, -70043.75, -43288.91, -46039.27, -69256.90, -63495.96, 0.000, 0.000, 0.000, 13:05:15.649, 1584014715649
179, 19623.74, 9325.57, -52308.09, -69837.48, -45300.77, -44359.65, -70796.98, -58736.07, 0.000, 0.000, 0.000, 13:05:15.649, 1584014715649
180, 20936.86, 8873.82, -52228.89, -70333.72, -44528.23, -45871.59, -69227.35, -58621.85, 0.000, 0.000, 0.000, 13:05:15.649, 1584014715649
181, 13780.74, 6615.40, -52179.99, -70798.84, -42179.46, -48117.09, -66984.06, -62632.27, 0.000, 0.000, 0.000, 13:05:15.649, 1584014715649
182, 7842.09, 5489.28, -52233.77, -70515.41, -41419.97, -48033.16, -67045.64, -65783.57, 0.000, 0.000, 0.000, 13:05:15.649, 1584014715649
